/muse/eeg 835.650024 812.620300 835.650024 820.845215
/muse/eeg/quantization 1 1 1 1
/muse/eeg 837.294983 809.330322 835.650024 822.490173
/muse/eeg 835.650024 809.330322 834.005005 824.135132
/muse/eeg 827.425110 810.975281 832.360046 819.200195
/muse/eeg 827.425110 807.685364 834.005005 822.490173
/muse/eeg 829.070068 810.975281 834.005005 827.425110
/muse/eeg 835.650024 807.685364 835.650024 829.070068
/muse/eeg 829.070068 812.620300 832.360046 824.135132
/muse/elements/alpha_relative 0.217964 0.093622 0.215627 0.216510
/muse/elements/beta_relative 0.121258 0.052703 0.071910 0.068105
/muse/elements/delta_relative 0.223270 0.553932 0.363544 0.248341
/muse/elements/gamma_relative 0.054683 0.020563 0.067197 0.031483
/muse/elements/theta_relative 0.382824 0.279180 0.281722 0.435561
/muse/elements/low_freqs_absolute 1.142957 1.086554 0.995858 1.467247
/muse/elements/alpha_absolute 0.698802 0.137228 0.519823 0.967730
/muse/elements/beta_absolute 0.444128 -0.112313 0.042909 0.465434
/muse/elements/delta_absolute 0.709247 0.909307 0.746675 1.027302
/muse/elements/gamma_absolute 0.098270 -0.521072 0.013467 0.130325
/muse/elements/theta_absolute 0.943416 0.611735 0.635940 1.271303
/muse/eeg 834.005005 810.975281 835.650024 824.135132
/muse/eeg 840.584961 812.620300 834.005005 827.425110
/muse/eeg 845.519897 812.620300 832.360046 832.360046
/muse/eeg 838.940002 817.555237 832.360046 824.135132
/muse/eeg 842.229919 819.200195 835.650024 824.135132
/muse/eeg 843.874939 812.620300 835.650024 824.135132
/muse/eeg 843.874939 815.910278 835.650024 824.135132
/muse/eeg 848.809875 812.620300 835.650024 832.360046
/muse/drlref 1635483.875000 1641935.500000
/muse/eeg 843.874939 815.910278 834.005005 830.715088
/muse/eeg/quantization 1 1 1 1
/muse/eeg 837.294983 815.910278 837.294983 819.200195
/muse/eeg 837.294983 812.620300 837.294983 822.490173
/muse/eeg 850.454834 809.330322 838.940002 837.294983
/muse/eeg 857.034729 809.330322 835.650024 847.164856
/muse/eeg 845.519897 819.200195 830.715088 825.780151
/muse/eeg 838.940002 822.490173 822.490173 810.975281
/muse/eeg 840.584961 824.135132 820.845215 812.620300
/muse/eeg 840.584961 824.135132 817.555237 814.265259
/muse/eeg 842.229919 827.425110 814.265259 812.620300
/muse/eeg 848.809875 832.360046 807.685364 810.975281
/muse/eeg 842.229919 835.650024 802.750427 802.750427
/muse/eeg 845.519897 834.005005 801.105408 807.685364
/muse/eeg 852.099792 835.650024 802.750427 814.265259
/muse/elements/alpha_relative 0.211822 0.091791 0.192515 0.197040
/muse/elements/beta_relative 0.147218 0.054905 0.073204 0.080407
/muse/elements/delta_relative 0.236863 0.558414 0.379932 0.239121
/muse/elements/gamma_relative 0.066888 0.019897 0.067993 0.038020
/muse/elements/theta_relative 0.337209 0.274993 0.286355 0.445411
/muse/elements/low_freqs_absolute 1.042381 1.094363 0.992817 1.367900
/muse/elements/alpha_absolute 0.609386 0.136304 0.453619 0.827061
/muse/elements/beta_absolute 0.451374 -0.086880 0.033692 0.437802
/muse/elements/delta_absolute 0.657912 0.920462 0.748862 0.911124
/muse/elements/gamma_absolute 0.108762 -0.527701 0.001622 0.112519
/muse/elements/theta_absolute 0.811314 0.612829 0.626060 1.181267
/muse/eeg 848.809875 835.650024 806.040344 812.620300
/muse/eeg 852.099792 834.005005 807.685364 810.975281
/muse/eeg 855.389771 834.005005 812.620300 812.620300
/muse/eeg/quantization 1 1 1 1
/muse/eeg 855.389771 830.715088 812.620300 820.845215
/muse/eeg 855.389771 832.360046 812.620300 817.555237
/muse/eeg 858.679749 827.425110 814.265259 824.135132
/muse/eeg 857.034729 830.715088 812.620300 825.780151
/muse/eeg 857.034729 829.070068 814.265259 825.780151
/muse/eeg 850.454834 832.360046 814.265259 817.555237
/muse/eeg 850.454834 832.360046 815.910278 819.200195
/muse/eeg 853.744812 825.780151 819.200195 827.425110
/muse/eeg 853.744812 825.780151 819.200195 832.360046
/muse/eeg 848.809875 827.425110 822.490173 825.780151
/muse/eeg 848.809875 830.715088 822.490173 820.845215
/muse/eeg 848.809875 825.780151 820.845215 820.845215
/muse/eeg 845.519897 825.780151 824.135132 820.845215
/muse/eeg 850.454834 822.490173 820.845215 830.715088
/muse/eeg 843.874939 822.490173 825.780151 825.780151
/muse/drlref 1635483.875000 1641935.500000
/muse/eeg 842.229919 824.135132 824.135132 824.135132
/muse/eeg/quantization 1 1 1 1
/muse/eeg 845.519897 824.135132 824.135132 830.715088
/muse/eeg 852.099792 822.490173 824.135132 835.650024
/muse/eeg 853.744812 820.845215 825.780151 840.584961
/muse/elements/alpha_relative 0.211822 0.094426 0.174342 0.197040
/muse/elements/beta_relative 0.147218 0.056113 0.074460 0.080407
/muse/elements/delta_relative 0.236863 0.561383 0.398023 0.239121
/muse/elements/gamma_relative 0.066888 0.018873 0.066589 0.038020
/muse/elements/theta_relative 0.337209 0.269205 0.286586 0.445411
/muse/elements/low_freqs_absolute 1.042381 1.109968 1.010162 1.367900
/muse/elements/alpha_absolute 0.609386 0.165672 0.416122 0.827061
/muse/elements/beta_absolute 0.451374 -0.060354 0.046642 0.437802
/muse/elements/delta_absolute 0.657912 0.939842 0.774628 0.911124
/muse/elements/gamma_absolute 0.108762 -0.533578 -0.001877 0.112519
/muse/elements/theta_absolute 0.811314 0.620666 0.631974 1.181267
/muse/eeg 848.809875 822.490173 825.780151 830.715088
/muse/eeg 848.809875 824.135132 824.135132 830.715088
/muse/eeg 843.874939 822.490173 825.780151 832.360046
/muse/eeg 847.164856 817.555237 827.425110 834.005005
/muse/eeg 847.164856 825.780151 827.425110 824.135132
/muse/eeg 847.164856 822.490173 827.425110 830.715088
/muse/eeg 848.809875 822.490173 829.070068 829.070068
/muse/eeg 852.099792 822.490173 829.070068 835.650024
/muse/eeg 845.519897 820.845215 827.425110 835.650024
/muse/eeg 847.164856 824.135132 827.425110 829.070068
/muse/eeg 850.454834 824.135132 824.135132 824.135132
/muse/eeg 850.454834 820.845215 827.425110 830.715088
/muse/drlref 1635483.875000 1641935.500000
/muse/eeg 848.809875 817.555237 827.425110 834.005005
/muse/eeg/quantization 1 1 1 1
/muse/eeg 840.584961 819.200195 829.070068 825.780151
/muse/eeg 847.164856 820.845215 829.070068 829.070068
/muse/eeg 847.164856 817.555237 829.070068 829.070068
/muse/eeg 847.164856 815.910278 829.070068 835.650024
/muse/eeg 840.584961 815.910278 827.425110 827.425110
/muse/eeg 837.294983 815.910278 827.425110 824.135132
/muse/eeg 835.650024 814.265259 830.715088 824.135132
/muse/eeg 835.650024 812.620300 830.715088 820.845215
/muse/eeg 834.005005 812.620300 832.360046 824.135132
/muse/elements/alpha_relative 0.211822 0.102692 0.156996 0.197040
/muse/elements/beta_relative 0.147218 0.056120 0.076678 0.080407
/muse/elements/delta_relative 0.236863 0.562169 0.413123 0.239121
/muse/elements/gamma_relative 0.066888 0.017702 0.064707 0.038020
/muse/elements/theta_relative 0.337209 0.261317 0.288496 0.445411
/muse/elements/low_freqs_absolute 1.042381 1.129066 1.035376 1.367900
/muse/elements/alpha_absolute 0.609386 0.224947 0.385163 0.827061
/muse/elements/beta_absolute 0.451374 -0.037475 0.073945 0.437802
/muse/elements/delta_absolute 0.657912 0.963277 0.805355 0.911124
/muse/elements/gamma_absolute 0.108762 -0.538567 0.000227 0.112519
/muse/elements/theta_absolute 0.811314 0.630578 0.649415 1.181267
/muse/eeg 832.360046 809.330322 832.360046 817.555237
/muse/eeg 837.294983 807.685364 832.360046 817.555237
/muse/eeg 838.940002 812.620300 830.715088 820.845215
/muse/eeg 834.005005 814.265259 830.715088 817.555237
/muse/eeg 832.360046 815.910278 829.070068 819.200195
/muse/eeg 837.294983 815.910278 830.715088 822.490173
/muse/eeg 837.294983 814.265259 832.360046 817.555237
/muse/eeg/quantization 1 1 1 1
/muse/eeg 837.294983 814.265259 832.360046 822.490173
/muse/eeg 835.650024 812.620300 834.005005 827.425110
/muse/eeg 835.650024 815.910278 834.005005 819.200195
/muse/eeg 837.294983 814.265259 832.360046 822.490173
/muse/eeg 837.294983 815.910278 830.715088 814.265259
/muse/eeg 845.519897 814.265259 832.360046 824.135132
/muse/eeg 835.650024 815.910278 830.715088 815.910278
/muse/eeg 838.940002 815.910278 830.715088 820.845215
/muse/eeg 838.940002 814.265259 832.360046 822.490173
/muse/eeg 840.584961 814.265259 834.005005 825.780151
/muse/eeg 842.229919 810.975281 835.650024 829.070068
/muse/eeg 837.294983 812.620300 834.005005 822.490173
/muse/eeg 830.715088 817.555237 834.005005 809.330322
/muse/eeg 834.005005 810.975281 834.005005 812.620300
/muse/eeg 834.005005 806.040344 834.005005 814.265259
/muse/elements/alpha_relative 0.211822 0.104819 0.162872 0.197040
/muse/elements/beta_relative 0.147218 0.055703 0.077387 0.080407
/muse/elements/delta_relative 0.236863 0.569032 0.412775 0.239121
/muse/elements/gamma_relative 0.066888 0.016810 0.061460 0.038020
/muse/elements/theta_relative 0.337209 0.253637 0.285507 0.445411
/muse/elements/low_freqs_absolute 1.042381 1.147400 1.057095 1.367900
/muse/elements/alpha_absolute 0.609386 0.252614 0.424911 0.827061
/muse/elements/beta_absolute 0.451374 -0.021949 0.101732 0.437802
/muse/elements/delta_absolute 0.657912 0.987311 0.828777 0.911124
/muse/elements/gamma_absolute 0.108762 -0.542269 0.001658 0.112519
/muse/elements/theta_absolute 0.811314 0.636387 0.668681 1.181267
/muse/drlref 1635483.875000 1641935.500000
/muse/eeg 834.005005 807.685364 832.360046 809.330322
/muse/eeg/quantization 1 1 1 1
/muse/eeg 837.294983 814.265259 829.070068 815.910278
/muse/eeg 842.229919 814.265259 830.715088 824.135132
/muse/eeg 832.360046 809.330322 842.229919 819.200195
/muse/eeg 822.490173 806.040344 840.584961 815.910278
/muse/eeg 824.135132 807.685364 840.584961 814.265259
/muse/eeg 827.425110 807.685364 837.294983 809.330322
/muse/eeg 837.294983 806.040344 834.005005 819.200195
/muse/eeg 837.294983 804.395386 835.650024 819.200195
/muse/eeg 830.715088 804.395386 834.005005 815.910278
/muse/eeg 830.715088 807.685364 834.005005 817.555237
/muse/eeg 838.940002 809.330322 835.650024 822.490173
/muse/eeg 842.229919 806.040344 834.005005 834.005005
/muse/eeg 835.650024 807.685364 832.360046 827.425110
/muse/eeg 840.584961 812.620300 835.650024 827.425110
/muse/eeg 845.519897 809.330322 834.005005 835.650024
/muse/eeg 843.874939 809.330322 835.650024 832.360046
/muse/drlref 1635483.875000 1645161.250000
/muse/eeg 842.229919 806.040344 834.005005 838.940002
/muse/eeg/quantization 1 1 1 1
/muse/eeg 834.005005 809.330322 832.360046 825.780151
/muse/eeg 840.584961 809.330322 834.005005 825.780151
/muse/eeg 840.584961 809.330322 834.005005 825.780151
/muse/eeg 838.940002 809.330322 832.360046 822.490173
/muse/elements/alpha_relative 0.211822 0.101438 0.162471 0.197040
/muse/elements/beta_relative 0.147218 0.054740 0.078166 0.080407
/muse/elements/delta_relative 0.236863 0.581643 0.412666 0.239121
/muse/elements/gamma_relative 0.066888 0.016097 0.058949 0.038020
/muse/elements/theta_relative 0.337209 0.246083 0.287748 0.445411
/muse/elements/low_freqs_absolute 1.042381 1.164435 1.073177 1.367900
/muse/elements/alpha_absolute 0.609386 0.252747 0.438598 0.827061
/muse/elements/beta_absolute 0.451374 -0.015146 0.120837 0.437802
/muse/elements/delta_absolute 0.657912 1.011204 0.843421 0.911124
/muse/elements/gamma_absolute 0.108762 -0.546717 -0.001702 0.112519
/muse/elements/theta_absolute 0.811314 0.637630 0.686834 1.181267
/muse/eeg 840.584961 807.685364 834.005005 827.425110
/muse/eeg 834.005005 809.330322 835.650024 819.200195
/muse/eeg 835.650024 810.975281 837.294983 819.200195
/muse/eeg 835.650024 810.975281 835.650024 827.425110
/muse/eeg 835.650024 810.975281 837.294983 824.135132
/muse/eeg 832.360046 814.265259 835.650024 822.490173
/muse/eeg 835.650024 814.265259 837.294983 825.780151
/muse/eeg 835.650024 812.620300 837.294983 825.780151
/muse/eeg 840.584961 810.975281 837.294983 830.715088
/muse/eeg 840.584961 812.620300 835.650024 832.360046
/muse/eeg 835.650024 814.265259 834.005005 824.135132
/muse/eeg 837.294983 812.620300 832.360046 822.490173
/muse/eeg/quantization 1 1 1 1
/muse/eeg 830.715088 812.620300 834.005005 824.135132
/muse/eeg 832.360046 814.265259 837.294983 824.135132
/muse/eeg 835.650024 814.265259 838.940002 822.490173
/muse/eeg 840.584961 817.555237 837.294983 820.845215
/muse/eeg 842.229919 817.555237 835.650024 819.200195
/muse/eeg 848.809875 812.620300 835.650024 827.425110
/muse/eeg 838.940002 817.555237 835.650024 815.910278
/muse/eeg 845.519897 815.910278 835.650024 824.135132
/muse/eeg 847.164856 812.620300 834.005005 820.845215
/muse/eeg 843.874939 809.330322 835.650024 820.845215
/muse/elements/alpha_relative 0.211822 0.098471 0.161087 0.197040
/muse/elements/beta_relative 0.147218 0.053075 0.078218 0.080407
/muse/elements/delta_relative 0.236863 0.595672 0.413029 0.239121
/muse/elements/gamma_relative 0.066888 0.015315 0.056684 0.038020
/muse/elements/theta_relative 0.337209 0.237467 0.290981 0.445411
/muse/elements/low_freqs_absolute 1.042381 1.180157 1.083306 1.367900
/muse/elements/alpha_absolute 0.609386 0.252747 0.442788 0.827061
/muse/elements/beta_absolute 0.451374 -0.015667 0.129036 0.437802
/muse/elements/delta_absolute 0.657912 1.034447 0.851708 0.911124
/muse/elements/gamma_absolute 0.108762 -0.555439 -0.010816 0.112519
/muse/elements/theta_absolute 0.811314 0.635043 0.699591 1.181267
/muse/eeg 842.229919 810.975281 835.650024 820.845215
/muse/eeg 837.294983 819.200195 835.650024 814.265259
/muse/eeg 850.454834 817.555237 835.650024 820.845215
/muse/eeg 847.164856 815.910278 834.005005 820.845215
/muse/eeg 847.164856 810.975281 832.360046 830.715088
/muse/drlref 1635483.875000 1645161.250000
/muse/eeg 840.584961 814.265259 835.650024 825.780151
/muse/eeg/quantization 1 1 1 1
/muse/eeg 835.650024 814.265259 837.294983 824.135132
/muse/eeg 832.360046 810.975281 837.294983 824.135132
/muse/eeg 834.005005 809.330322 838.940002 829.070068
/muse/eeg 832.360046 809.330322 837.294983 824.135132
/muse/eeg 829.070068 814.265259 838.940002 815.910278
/muse/eeg 835.650024 815.910278 840.584961 819.200195
/muse/eeg 832.360046 812.620300 838.940002 820.845215
/muse/eeg 829.070068 814.265259 838.940002 819.200195
/muse/eeg 830.715088 817.555237 835.650024 819.200195
/muse/eeg 829.070068 815.910278 834.005005 817.555237
/muse/eeg 835.650024 814.265259 834.005005 824.135132
/muse/eeg 832.360046 817.555237 834.005005 817.555237
/muse/eeg 832.360046 810.975281 835.650024 817.555237
/muse/eeg 832.360046 819.200195 837.294983 814.265259
/muse/eeg 835.650024 820.845215 835.650024 822.490173
/muse/drlref 1635483.875000 1645161.250000
/muse/eeg 838.940002 817.555237 837.294983 824.135132
/muse/elements/alpha_relative 0.210706 0.096337 0.160199 0.164392
/muse/elements/beta_relative 0.120194 0.051169 0.077870 0.218582
/muse/elements/delta_relative 0.377506 0.608326 0.414698 0.209723
/muse/elements/gamma_relative 0.086297 0.014498 0.054646 0.124633
/muse/elements/theta_relative 0.205297 0.229670 0.292587 0.282671
/muse/elements/low_freqs_absolute 0.913100 1.192197 1.086344 0.678893
/muse/elements/alpha_absolute 0.471254 0.252747 0.441409 0.202461
/muse/elements/beta_absolute 0.227461 -0.022039 0.128123 0.326194
/muse/elements/delta_absolute 0.724502 1.053092 0.854482 0.308226
/muse/elements/gamma_absolute 0.083571 -0.569746 -0.025689 0.082212
/muse/elements/theta_absolute 0.459960 0.630060 0.703005 0.437862
/muse/eeg/quantization 1 1 1 1
/muse/eeg 838.940002 819.200195 835.650024 820.845215
/muse/eeg 830.715088 817.555237 832.360046 812.620300
/muse/eeg 840.584961 812.620300 832.360046 822.490173
/muse/eeg 830.715088 812.620300 832.360046 815.910278
/muse/eeg 829.070068 814.265259 830.715088 812.620300
/muse/eeg 832.360046 812.620300 834.005005 817.555237
/muse/eeg 834.005005 815.910278 832.360046 817.555237
/muse/eeg 834.005005 812.620300 832.360046 822.490173
/muse/eeg 837.294983 814.265259 830.715088 825.780151
/muse/eeg 840.584961 810.975281 829.070068 827.425110
/muse/eeg 835.650024 815.910278 830.715088 824.135132
/muse/eeg 837.294983 817.555237 832.360046 825.780151
/muse/eeg 837.294983 815.910278 832.360046 820.845215
/muse/eeg 835.650024 812.620300 832.360046 817.555237
/muse/eeg 838.940002 814.265259 830.715088 819.200195
/muse/eeg 832.360046 817.555237 832.360046 810.975281
/muse/eeg/quantization 1 1 1 1
/muse/eeg 834.005005 819.200195 830.715088 809.330322
/muse/eeg 835.650024 814.265259 832.360046 807.685364
/muse/eeg 835.650024 814.265259 830.715088 809.330322
/muse/eeg 834.005005 815.910278 834.005005 810.975281
/muse/eeg 832.360046 819.200195 835.650024 809.330322
/muse/eeg 835.650024 819.200195 834.005005 812.620300
/muse/elements/alpha_relative 0.214790 0.096206 0.161281 0.169042
/muse/elements/beta_relative 0.112460 0.049770 0.078009 0.210821
/muse/elements/delta_relative 0.411566 0.617387 0.417830 0.229374
/muse/elements/gamma_relative 0.084260 0.013905 0.052740 0.114635
/muse/elements/theta_relative 0.176925 0.222733 0.290140 0.276128
/muse/elements/low_freqs_absolute 0.908979 1.193886 1.079271 0.707033
/muse/elements/alpha_absolute 0.471254 0.252747 0.436838 0.231304
/muse/elements/beta_absolute 0.190237 -0.033488 0.121403 0.327225
/muse/elements/delta_absolute 0.753679 1.060102 0.850256 0.363854
/muse/elements/gamma_absolute 0.064859 -0.587287 -0.048604 0.062630
/muse/elements/theta_absolute 0.387029 0.617329 0.691863 0.444421
/muse/eeg 835.650024 814.265259 835.650024 815.910278
/muse/eeg 834.005005 815.910278 835.650024 814.265259
/muse/eeg 837.294983 819.200195 837.294983 820.845215
/muse/eeg 835.650024 819.200195 835.650024 819.200195
/muse/eeg 842.229919 814.265259 835.650024 825.780151
/muse/eeg 838.940002 814.265259 835.650024 825.780151
/muse/eeg 835.650024 820.845215 830.715088 822.490173
/muse/eeg 848.809875 822.490173 827.425110 832.360046
/muse/eeg 842.229919 817.555237 835.650024 830.715088
/muse/drlref 1635483.875000 1641935.500000
/muse/eeg 829.070068 809.330322 840.584961 819.200195
/muse/eeg/quantization 1 1 1 1
/muse/eeg 820.845215 809.330322 843.874939 812.620300
/muse/eeg 815.910278 806.040344 843.874939 812.620300
/muse/eeg 817.555237 807.685364 840.584961 810.975281
/muse/eeg 824.135132 806.040344 843.874939 817.555237
/muse/eeg 815.910278 802.750427 847.164856 809.330322
/muse/eeg 809.330322 807.685364 843.874939 807.685364
/muse/eeg 822.490173 804.395386 842.229919 820.845215
/muse/eeg 824.135132 804.395386 843.874939 817.555237
/muse/eeg 820.845215 799.460449 843.874939 819.200195
/muse/eeg 819.200195 802.750427 843.874939 814.265259
/muse/eeg 827.425110 809.330322 843.874939 825.780151
/muse/eeg 827.425110 807.685364 842.229919 830.715088
/muse/elements/alpha_relative 0.222522 0.099629 0.166062 0.176920
/muse/elements/beta_relative 0.108627 0.049747 0.079245 0.206194
/muse/elements/delta_relative 0.424607 0.621432 0.421911 0.244454
/muse/elements/gamma_relative 0.084093 0.013828 0.050323 0.106091
/muse/elements/theta_relative 0.160151 0.215364 0.282460 0.266342
/muse/elements/low_freqs_absolute 0.890858 1.176981 1.060620 0.714725
/muse/elements/alpha_absolute 0.471254 0.252747 0.433089 0.254254
/muse/elements/beta_absolute 0.159820 -0.048871 0.111788 0.320753
/muse/elements/delta_absolute 0.751868 1.047755 0.838039 0.394674
/muse/elements/gamma_absolute 0.048640 -0.604895 -0.085419 0.032155
/muse/elements/theta_absolute 0.328411 0.587534 0.663776 0.431917
/muse/eeg 832.360046 807.685364 843.874939 830.715088
/muse/eeg 829.070068 807.685364 842.229919 829.070068
/muse/eeg 830.715088 810.975281 843.874939 830.715088
/muse/drlref 1635483.875000 1641935.500000
/muse/eeg 835.650024 810.975281 843.874939 829.070068
/muse/eeg/quantization 1 1 1 1
/muse/eeg 837.294983 810.975281 843.874939 829.070068
/muse/eeg 842.229919 807.685364 843.874939 835.650024
/muse/eeg 840.584961 809.330322 843.874939 832.360046
/muse/eeg 843.874939 810.975281 843.874939 834.005005
/muse/eeg 840.584961 810.975281 838.940002 830.715088
/muse/eeg 842.229919 810.975281 837.294983 830.715088
/muse/eeg 838.940002 810.975281 837.294983 827.425110
/muse/eeg 837.294983 812.620300 835.650024 825.780151
/muse/eeg 842.229919 812.620300 838.940002 829.070068
/muse/eeg 842.229919 812.620300 840.584961 834.005005
/muse/eeg 848.809875 810.975281 840.584961 840.584961
/muse/eeg 840.584961 809.330322 840.584961 834.005005
/muse/eeg 842.229919 807.685364 838.940002 832.360046
/muse/eeg 840.584961 807.685364 835.650024 832.360046
/muse/eeg 837.294983 812.620300 837.294983 830.715088
/muse/eeg 835.650024 812.620300 834.005005 832.360046
/muse/eeg/quantization 1 1 1 1
/muse/eeg 837.294983 812.620300 835.650024 830.715088
/muse/eeg 837.294983 814.265259 835.650024 819.200195
/muse/elements/alpha_relative 0.233431 0.107593 0.174592 0.206496
/muse/elements/beta_relative 0.108995 0.051627 0.081266 0.200578
/muse/elements/delta_relative 0.419649 0.620653 0.427860 0.245959
/muse/elements/gamma_relative 0.085165 0.014485 0.046449 0.096919
/muse/elements/theta_relative 0.152760 0.205642 0.269834 0.250049
/muse/elements/low_freqs_absolute 0.860801 1.138099 1.034729 0.706017
/muse/elements/alpha_absolute 0.471254 0.252747 0.433089 0.325440
/muse/elements/beta_absolute 0.140503 -0.066159 0.100973 0.312811
/muse/elements/delta_absolute 0.725981 1.013812 0.822366 0.401391
/muse/elements/gamma_absolute 0.033354 -0.618104 -0.141964 -0.003061
/muse/elements/theta_absolute 0.287106 0.534076 0.622161 0.408554
/muse/eeg 843.874939 812.620300 835.650024 827.425110
/muse/eeg 838.940002 812.620300 835.650024 822.490173
/muse/eeg 837.294983 812.620300 832.360046 819.200195
/muse/eeg 837.294983 812.620300 832.360046 819.200195
/muse/eeg 840.584961 809.330322 832.360046 822.490173
/muse/eeg 840.584961 807.685364 832.360046 827.425110
/muse/eeg 837.294983 810.975281 834.005005 822.490173
/muse/eeg 838.940002 809.330322 834.005005 820.845215
/muse/eeg 837.294983 810.975281 837.294983 820.845215
/muse/eeg 842.229919 810.975281 835.650024 829.070068
/muse/eeg 840.584961 810.975281 834.005005 827.425110
/muse/eeg 834.005005 812.620300 834.005005 817.555237
/muse/eeg 838.940002 814.265259 832.360046 825.780151
/muse/eeg 835.650024 814.265259 834.005005 822.490173
/muse/drlref 1635483.875000 1641935.500000
/muse/eeg 840.584961 809.330322 834.005005 827.425110
/muse/eeg/quantization 1 1 1 1
/muse/eeg 834.005005 812.620300 837.294983 824.135132
/muse/eeg 845.519897 809.330322 838.940002 834.005005
/muse/eeg 847.164856 814.265259 834.005005 830.715088
/muse/eeg 832.360046 819.200195 827.425110 814.265259
/muse/eeg 832.360046 822.490173 825.780151 812.620300
/muse/eeg 827.425110 824.135132 825.780151 807.685364
/muse/eeg 834.005005 819.200195 822.490173 819.200195
/muse/elements/alpha_relative 0.244785 0.119631 0.182653 0.240223
/muse/elements/beta_relative 0.112238 0.055234 0.083255 0.196867
/muse/elements/delta_relative 0.403297 0.615896 0.437496 0.239973
/muse/elements/gamma_relative 0.086034 0.015808 0.040901 0.089063
/muse/elements/theta_relative 0.153647 0.193431 0.255695 0.233873
/muse/elements/low_freqs_absolute 0.828281 1.083025 1.010300 0.688812
/muse/elements/alpha_absolute 0.471254 0.252747 0.431074 0.393790
/muse/elements/beta_absolute 0.132608 -0.082894 0.089860 0.307348
/muse/elements/delta_absolute 0.688095 0.964409 0.810421 0.393337
/muse/elements/gamma_absolute 0.017140 -0.626232 -0.218821 -0.037126
/muse/elements/theta_absolute 0.268993 0.461427 0.577169 0.382155
/muse/eeg 834.005005 824.135132 820.845215 815.910278
/muse/eeg 834.005005 829.070068 820.845215 809.330322
/muse/eeg 829.070068 829.070068 820.845215 804.395386
/muse/eeg 834.005005 829.070068 825.780151 809.330322
/muse/eeg 840.584961 824.135132 824.135132 819.200195
/muse/eeg 838.940002 819.200195 820.845215 815.910278
/muse/eeg 835.650024 820.845215 822.490173 810.975281
/muse/eeg 840.584961 820.845215 824.135132 817.555237
/muse/drlref 1635483.875000 1645161.250000
/muse/eeg 843.874939 820.845215 822.490173 819.200195
/muse/eeg/quantization 1 1 1 1
/muse/eeg 840.584961 824.135132 824.135132 819.200195
/muse/eeg 845.519897 819.200195 825.780151 825.780151
/muse/eeg 840.584961 815.910278 824.135132 820.845215
/muse/eeg 840.584961 814.265259 825.780151 819.200195
/muse/eeg 837.294983 817.555237 825.780151 819.200195
/muse/eeg 842.229919 817.555237 825.780151 827.425110
/muse/eeg 837.294983 820.845215 825.780151 815.910278
/muse/eeg 840.584961 820.845215 825.780151 819.200195
/muse/eeg 843.874939 815.910278 825.780151 824.135132
/muse/eeg 838.940002 817.555237 825.780151 820.845215
/muse/eeg 840.584961 812.620300 825.780151 822.490173
/muse/eeg 835.650024 817.555237 824.135132 814.265259
/muse/eeg 843.874939 815.910278 825.780151 820.845215
/muse/elements/alpha_relative 0.259012 0.133209 0.187137 0.268791
/muse/elements/beta_relative 0.115323 0.059497 0.084390 0.194397
/muse/elements/delta_relative 0.379719 0.608183 0.448817 0.235972
/muse/elements/gamma_relative 0.084678 0.017420 0.034769 0.082512
/muse/elements/theta_relative 0.161268 0.181692 0.244887 0.218329
/muse/elements/low_freqs_absolute 0.804417 1.025773 0.993996 0.673913
/muse/elements/alpha_absolute 0.484551 0.252747 0.424983 0.445984
/muse/elements/beta_absolute 0.133147 -0.097290 0.079115 0.305259
/muse/elements/delta_absolute 0.650693 0.912249 0.804891 0.389429
/muse/elements/gamma_absolute -0.000998 -0.630750 -0.305988 -0.066916
/muse/elements/theta_absolute 0.278778 0.387549 0.541787 0.355681
/muse/eeg 840.584961 814.265259 825.780151 820.845215
/muse/eeg 847.164856 812.620300 827.425110 825.780151
/muse/eeg 843.874939 812.620300 829.070068 825.780151
/muse/eeg/quantization 1 1 1 1
/muse/eeg 843.874939 817.555237 830.715088 820.845215
/muse/eeg 843.874939 815.910278 830.715088 824.135132
/muse/eeg 842.229919 814.265259 830.715088 824.135132
/muse/eeg 843.874939 812.620300 827.425110 820.845215
/muse/eeg 840.584961 812.620300 827.425110 815.910278
/muse/eeg 843.874939 812.620300 825.780151 819.200195
/muse/eeg 843.874939 814.265259 827.425110 820.845215
/muse/eeg 843.874939 814.265259 827.425110 820.845215
/muse/eeg 837.294983 819.200195 827.425110 815.910278
/muse/eeg 837.294983 817.555237 829.070068 815.910278
/muse/eeg 838.940002 815.910278 827.425110 817.555237
/muse/eeg 842.229919 814.265259 829.070068 822.490173
/muse/eeg 837.294983 814.265259 830.715088 819.200195
/muse/eeg 834.005005 815.910278 830.715088 814.265259
/muse/eeg 837.294983 814.265259 829.070068 822.490173
/muse/drlref 1635483.875000 1641935.500000
/muse/eeg 835.650024 814.265259 830.715088 822.490173
/muse/eeg/quantization 1 1 1 1
/muse/eeg 840.584961 810.975281 832.360046 820.845215
/muse/eeg 830.715088 812.620300 834.005005 819.200195
/muse/eeg 834.005005 809.330322 834.005005 822.490173
/muse/elements/alpha_relative 0.269661 0.140351 0.190486 0.298935
/muse/elements/beta_relative 0.117039 0.062847 0.084031 0.188457
/muse/elements/delta_relative 0.356786 0.602813 0.458136 0.235802
/muse/elements/gamma_relative 0.081389 0.018815 0.029600 0.075965
/muse/elements/theta_relative 0.175126 0.175174 0.237747 0.200842
/muse/elements/low_freqs_absolute 0.794928 0.983349 0.987657 0.669050
/muse/elements/alpha_absolute 0.499906 0.239593 0.424983 0.504499
/muse/elements/beta_absolute 0.137418 -0.109340 0.069561 0.304134
/muse/elements/delta_absolute 0.621496 0.872559 0.806115 0.401470
/muse/elements/gamma_absolute -0.020348 -0.633128 -0.383588 -0.090464
/muse/elements/theta_absolute 0.312439 0.335846 0.521236 0.331778
/muse/eeg 832.360046 810.975281 834.005005 822.490173
/muse/eeg 834.005005 812.620300 830.715088 820.845215
/muse/eeg 830.715088 809.330322 830.715088 820.845215
/muse/eeg 827.425110 810.975281 829.070068 817.555237
/muse/eeg 827.425110 809.330322 830.715088 815.910278
/muse/eeg 825.780151 806.040344 829.070068 812.620300
/muse/eeg 835.650024 806.040344 830.715088 824.135132
/muse/eeg 825.780151 812.620300 832.360046 814.265259
/muse/eeg 837.294983 812.620300 830.715088 825.780151
/muse/eeg 837.294983 814.265259 834.005005 822.490173
/muse/eeg 842.229919 809.330322 832.360046 829.070068
/muse/eeg 838.940002 810.975281 832.360046 824.135132
/muse/drlref 1635483.875000 1641935.500000
/muse/eeg 838.940002 814.265259 834.005005 824.135132
/muse/eeg/quantization 1 1 1 1
/muse/eeg 840.584961 814.265259 832.360046 825.780151
/muse/eeg 845.519897 814.265259 830.715088 824.135132
/muse/eeg 852.099792 809.330322 830.715088 832.360046
/muse/eeg 847.164856 810.975281 834.005005 834.005005
/muse/eeg 843.874939 814.265259 835.650024 835.650024
/muse/eeg 838.940002 814.265259 835.650024 832.360046
/muse/eeg 837.294983 809.330322 834.005005 838.940002
/muse/eeg 827.425110 810.975281 832.360046 824.135132
/muse/eeg 837.294983 810.975281 834.005005 827.425110
/muse/elements/alpha_relative 0.283350 0.141995 0.191020 0.333571
/muse/elements/beta_relative 0.116053 0.063664 0.082504 0.176988
/muse/elements/delta_relative 0.334137 0.600376 0.466047 0.237478
/muse/elements/gamma_relative 0.076585 0.019792 0.026320 0.069448
/muse/elements/theta_relative 0.189875 0.174173 0.234109 0.182516
/muse/elements/low_freqs_absolute 0.795699 0.963062 0.989098 0.675375
/muse/elements/alpha_absolute 0.528681 0.226285 0.424983 0.575320
/muse/elements/beta_absolute 0.141015 -0.122092 0.060379 0.300075
/muse/elements/delta_absolute 0.600282 0.852436 0.812333 0.427756
/muse/elements/gamma_absolute -0.039500 -0.629501 -0.435809 -0.106208
/muse/elements/theta_absolute 0.354825 0.314994 0.513321 0.313432
/muse/eeg 837.294983 810.975281 837.294983 829.070068
/muse/eeg 835.650024 812.620300 834.005005 825.780151
/muse/eeg 838.940002 810.975281 834.005005 830.715088
/muse/eeg 832.360046 815.910278 834.005005 817.555237
/muse/eeg 838.940002 812.620300 834.005005 825.780151
/muse/eeg 842.229919 812.620300 832.360046 824.135132
/muse/eeg 845.519897 812.620300 832.360046 827.425110
/muse/eeg/quantization 1 1 1 1
/muse/eeg 843.874939 810.975281 834.005005 829.070068
/muse/eeg 842.229919 812.620300 834.005005 825.780151
/muse/eeg 845.519897 814.265259 835.650024 827.425110
/muse/eeg 847.164856 810.975281 834.005005 825.780151
/muse/eeg 847.164856 810.975281 834.005005 825.780151
/muse/eeg 842.229919 812.620300 834.005005 824.135132
/muse/eeg 837.294983 814.265259 835.650024 819.200195
/muse/eeg 840.584961 812.620300 834.005005 824.135132
/muse/eeg 843.874939 810.975281 834.005005 825.780151
/muse/eeg 837.294983 812.620300 835.650024 815.910278
/muse/eeg 838.940002 812.620300 834.005005 819.200195
/muse/eeg 835.650024 810.975281 835.650024 819.200195
/muse/eeg 835.650024 806.040344 835.650024 819.200195
/muse/eeg 837.294983 807.685364 834.005005 819.200195
/muse/eeg 832.360046 814.265259 832.360046 815.910278
/muse/elements/alpha_relative 0.292329 0.143882 0.187017 0.355702
/muse/elements/beta_relative 0.114341 0.061808 0.080313 0.165879
/muse/elements/delta_relative 0.316758 0.598641 0.476829 0.242850
/muse/elements/gamma_relative 0.072620 0.020659 0.024510 0.065260
/muse/elements/theta_relative 0.203952 0.175011 0.231331 0.170309
/muse/elements/low_freqs_absolute 0.798000 0.956825 0.992476 0.686983
/muse/elements/alpha_absolute 0.547276 0.226285 0.414226 0.621951
/muse/elements/beta_absolute 0.139608 -0.140679 0.047129 0.290657
/muse/elements/delta_absolute 0.582133 0.845446 0.820707 0.456204
/muse/elements/gamma_absolute -0.057541 -0.616609 -0.468305 -0.114487
/muse/elements/theta_absolute 0.390932 0.311344 0.506577 0.302102
/muse/drlref 1635483.875000 1641935.500000
/muse/eeg 837.294983 815.910278 830.715088 817.555237
/muse/eeg/quantization 1 1 1 1
/muse/eeg 837.294983 819.200195 832.360046 815.910278
/muse/eeg 843.874939 812.620300 830.715088 822.490173
/muse/eeg 843.874939 814.265259 830.715088 819.200195
/muse/eeg 842.229919 814.265259 830.715088 815.910278
/muse/eeg 835.650024 817.555237 832.360046 809.330322
/muse/eeg 840.584961 812.620300 832.360046 820.845215
/muse/eeg 838.940002 810.975281 832.360046 817.555237
/muse/eeg 835.650024 814.265259 832.360046 812.620300
/muse/eeg 834.005005 812.620300 834.005005 814.265259
/muse/eeg 840.584961 814.265259 835.650024 820.845215
/muse/eeg 843.874939 812.620300 834.005005 822.490173
/muse/eeg 840.584961 812.620300 834.005005 822.490173
/muse/eeg 845.519897 810.975281 832.360046 825.780151
/muse/eeg 842.229919 814.265259 834.005005 812.620300
/muse/eeg 853.744812 810.975281 832.360046 827.425110
/muse/drlref 1635483.875000 1641935.500000
/muse/eeg 850.454834 812.620300 830.715088 820.845215
/muse/eeg/quantization 1 1 1 1
/muse/eeg 845.519897 815.910278 832.360046 815.910278
/muse/eeg 848.809875 812.620300 832.360046 822.490173
/muse/eeg 845.519897 814.265259 835.650024 822.490173
/muse/eeg 850.454834 807.685364 834.005005 827.425110
/muse/eeg 848.809875 810.975281 832.360046 829.070068
/muse/elements/alpha_relative 0.294768 0.146027 0.188279 0.359937
/muse/elements/beta_relative 0.113649 0.058665 0.076928 0.158747
/muse/elements/delta_relative 0.304874 0.598518 0.486483 0.250878
/muse/elements/gamma_relative 0.070415 0.022116 0.022976 0.063849
/muse/elements/theta_relative 0.216294 0.174673 0.225333 0.166589
/muse/elements/low_freqs_absolute 0.795283 0.950328 0.989614 0.696510
/muse/elements/alpha_absolute 0.547784 0.226476 0.412048 0.632114
/muse/elements/beta_absolute 0.133871 -0.169578 0.023329 0.276594
/muse/elements/delta_absolute 0.562425 0.839119 0.824314 0.475350
/muse/elements/gamma_absolute -0.074031 -0.593246 -0.501471 -0.118956
/muse/elements/theta_absolute 0.413349 0.304267 0.490072 0.297534
/muse/eeg 842.229919 815.910278 834.005005 819.200195
/muse/eeg 843.874939 817.555237 834.005005 820.845215
/muse/eeg 853.744812 812.620300 834.005005 829.070068
/muse/eeg 842.229919 814.265259 832.360046 822.490173
/muse/eeg 847.164856 815.910278 830.715088 825.780151
/muse/eeg 847.164856 812.620300 830.715088 824.135132
/muse/eeg 842.229919 812.620300 830.715088 824.135132
/muse/eeg 842.229919 812.620300 830.715088 830.715088
/muse/eeg 837.294983 814.265259 832.360046 822.490173
/muse/eeg 840.584961 812.620300 834.005005 827.425110
/muse/eeg 837.294983 809.330322 830.715088 820.845215
/muse/eeg 838.940002 806.040344 830.715088 817.555237
/muse/eeg/quantization 1 1 1 1
/muse/eeg 835.650024 812.620300 830.715088 817.555237
/muse/eeg 834.005005 814.265259 829.070068 814.265259
/muse/eeg 838.940002 814.265259 830.715088 820.845215
/muse/eeg 835.650024 812.620300 832.360046 820.845215
/muse/eeg 837.294983 812.620300 832.360046 820.845215
/muse/eeg 830.715088 817.555237 834.005005 819.200195
/muse/eeg 835.650024 815.910278 835.650024 825.780151
/muse/eeg 835.650024 817.555237 835.650024 827.425110
/muse/eeg 837.294983 812.620300 834.005005 827.425110
/muse/eeg 832.360046 815.910278 835.650024 819.200195
/muse/elements/alpha_relative 0.301545 0.150885 0.190764 0.361187
/muse/elements/beta_relative 0.112818 0.055220 0.073330 0.153215
/muse/elements/delta_relative 0.293062 0.598083 0.497184 0.255186
/muse/elements/gamma_relative 0.069049 0.024413 0.021401 0.063374
/muse/elements/theta_relative 0.223526 0.171400 0.217320 0.167038
/muse/elements/low_freqs_absolute 0.785807 0.934028 0.973869 0.699925
/muse/elements/alpha_absolute 0.552016 0.226476 0.400362 0.632114
/muse/elements/beta_absolute 0.125043 -0.210078 -0.014853 0.259684
/muse/elements/delta_absolute 0.539623 0.824591 0.816382 0.481239
/muse/elements/gamma_absolute -0.088177 -0.564555 -0.549696 -0.123704
/muse/elements/theta_absolute 0.421991 0.281839 0.456964 0.297198
/muse/eeg 838.940002 815.910278 834.005005 829.070068
/muse/eeg 837.294983 815.910278 834.005005 830.715088
/muse/eeg 838.940002 814.265259 834.005005 834.005005
/muse/eeg 838.940002 815.910278 835.650024 827.425110
/muse/eeg 837.294983 815.910278 834.005005 825.780151
/muse/drlref 1635483.875000 1641935.500000
/muse/eeg 843.874939 810.975281 834.005005 827.425110
/muse/eeg/quantization 1 1 1 1
/muse/eeg 842.229919 810.975281 834.005005 824.135132
/muse/eeg 847.164856 812.620300 830.715088 834.005005
/muse/eeg 835.650024 812.620300 829.070068 819.200195
/muse/eeg 834.005005 815.910278 829.070068 815.910278
/muse/eeg 834.005005 815.910278 832.360046 815.910278
/muse/eeg 834.005005 810.975281 832.360046 819.200195
/muse/eeg 835.650024 810.975281 832.360046 825.780151
/muse/eeg 829.070068 814.265259 832.360046 819.200195
/muse/eeg 838.940002 814.265259 832.360046 825.780151
/muse/eeg 850.454834 815.910278 829.070068 835.650024
/muse/eeg 852.099792 814.265259 834.005005 838.940002
/muse/eeg 825.780151 807.685364 838.940002 814.265259
/muse/eeg 825.780151 807.685364 842.229919 815.910278
/muse/eeg 814.265259 801.105408 850.454834 809.330322
/muse/eeg 817.555237 797.815491 847.164856 814.265259
/muse/drlref 1635483.875000 1641935.500000
/muse/eeg 814.265259 794.525513 852.099792 810.975281
/muse/elements/alpha_relative 0.309463 0.157854 0.199720 0.364512
/muse/elements/beta_relative 0.112748 0.052437 0.069795 0.148639
/muse/elements/delta_relative 0.282175 0.595644 0.504330 0.254845
/muse/elements/gamma_relative 0.068427 0.027574 0.019840 0.062812
/muse/elements/theta_relative 0.227187 0.166490 0.206314 0.169193
/muse/elements/low_freqs_absolute 0.771921 0.903921 0.942047 0.697807
/muse/elements/alpha_absolute 0.555503 0.220146 0.390817 0.632114
/muse/elements/beta_absolute 0.117004 -0.258473 -0.065779 0.242535
/muse/elements/delta_absolute 0.515413 0.796876 0.793109 0.476678
/muse/elements/gamma_absolute -0.099878 -0.537604 -0.612071 -0.131557
/muse/elements/theta_absolute 0.421277 0.243279 0.404923 0.298784
/muse/eeg/quantization 1 1 1 1
/muse/eeg 806.040344 796.170471 847.164856 799.460449
/muse/eeg 807.685364 796.170471 843.874939 796.170471
/muse/eeg 809.330322 794.525513 845.519897 804.395386
/muse/eeg 812.620300 789.590576 843.874939 809.330322
/muse/eeg 807.685364 794.525513 843.874939 799.460449
/muse/eeg 809.330322 801.105408 843.874939 804.395386
/muse/eeg 819.200195 799.460449 843.874939 812.620300
/muse/eeg 825.780151 799.460449 842.229919 820.845215
/muse/eeg 822.490173 799.460449 840.584961 812.620300
/muse/eeg 825.780151 802.750427 838.940002 812.620300
/muse/eeg 834.005005 804.395386 834.005005 819.200195
/muse/eeg 838.940002 804.395386 837.294983 825.780151
/muse/eeg 842.229919 804.395386 837.294983 829.070068
/muse/eeg 840.584961 806.040344 830.715088 822.490173
/muse/eeg 843.874939 806.040344 819.200195 834.005005
/muse/eeg 835.650024 801.105408 835.650024 830.715088
/muse/eeg/quantization 1 1 1 1
/muse/eeg 842.229919 797.815491 838.940002 834.005005
/muse/eeg 840.584961 804.395386 842.229919 834.005005
/muse/eeg 840.584961 806.040344 838.940002 837.294983
/muse/eeg 845.519897 806.040344 827.425110 837.294983
/muse/eeg 845.519897 807.685364 827.425110 835.650024
/muse/eeg 850.454834 802.750427 835.650024 840.584961
/muse/elements/alpha_relative 0.326426 0.163370 0.215427 0.365672
/muse/elements/beta_relative 0.110746 0.051261 0.067195 0.143859
/muse/elements/delta_relative 0.277132 0.591216 0.506264 0.260214
/muse/elements/gamma_relative 0.065029 0.031610 0.018688 0.058659
/muse/elements/theta_relative 0.220668 0.162543 0.192426 0.171596
/muse/elements/low_freqs_absolute 0.748363 0.858674 0.893556 0.704315
/muse/elements/alpha_absolute 0.565092 0.194613 0.382571 0.632114
/muse/elements/beta_absolute 0.095636 -0.308771 -0.123393 0.226960
/muse/elements/delta_absolute 0.493995 0.753188 0.753649 0.484353
/muse/elements/gamma_absolute -0.135587 -0.518734 -0.679155 -0.162639
/muse/elements/theta_absolute 0.395046 0.192409 0.333535 0.303530
/muse/eeg 860.324707 802.750427 843.874939 842.229919
/muse/eeg 853.744812 810.975281 837.294983 834.005005
/muse/eeg 835.650024 810.975281 827.425110 815.910278
/muse/eeg 838.940002 812.620300 825.780151 822.490173
/muse/eeg 820.845215 819.200195 820.845215 802.750427
/muse/eeg 825.780151 817.555237 827.425110 804.395386
/muse/eeg 822.490173 820.845215 817.555237 801.105408
/muse/eeg 822.490173 820.845215 810.975281 797.815491
/muse/eeg 822.490173 822.490173 807.685364 794.525513
/muse/drlref 1635483.875000 1641935.500000
/muse/eeg 827.425110 822.490173 801.105408 797.815491
/muse/eeg/quantization 1 1 1 1
/muse/eeg 837.294983 825.780151 807.685364 797.815491
/muse/eeg 830.715088 820.845215 806.040344 796.170471
/muse/eeg 842.229919 820.845215 807.685364 809.330322
/muse/eeg 842.229919 822.490173 812.620300 810.975281
/muse/eeg 843.874939 825.780151 812.620300 815.910278
/muse/eeg 847.164856 827.425110 812.620300 822.490173
/muse/eeg 855.389771 820.845215 814.265259 829.070068
/muse/eeg 848.809875 822.490173 817.555237 819.200195
/muse/eeg 850.454834 825.780151 820.845215 820.845215
/muse/eeg 855.389771 822.490173 817.555237 825.780151
/muse/eeg 853.744812 822.490173 819.200195 825.780151
/muse/eeg 860.324707 820.845215 820.845215 835.650024
/muse/elements/alpha_relative 0.339091 0.161788 0.222388 0.370391
/muse/elements/beta_relative 0.109985 0.052696 0.067815 0.138731
/muse/elements/delta_relative 0.267236 0.585370 0.513069 0.263842
/muse/elements/gamma_relative 0.061704 0.036839 0.018829 0.054130
/muse/elements/theta_relative 0.221984 0.163307 0.177899 0.172907
/muse/elements/low_freqs_absolute 0.729916 0.798737 0.828984 0.703686
/muse/elements/alpha_absolute 0.570727 0.133389 0.336638 0.632114
/muse/elements/beta_absolute 0.081745 -0.353779 -0.179151 0.205628
/muse/elements/delta_absolute 0.467307 0.691873 0.699702 0.484798
/muse/elements/gamma_absolute -0.169275 -0.509255 -0.735644 -0.203111
/muse/elements/theta_absolute 0.386732 0.137448 0.239701 0.301267
/muse/eeg 855.389771 824.135132 819.200195 827.425110
/muse/eeg 863.614685 824.135132 820.845215 838.940002
/muse/eeg 860.324707 819.200195 822.490173 842.229919
/muse/drlref 1635483.875000 1641935.500000
/muse/eeg 865.259644 814.265259 824.135132 843.874939
/muse/eeg/quantization 1 1 1 1
/muse/eeg 860.324707 817.555237 817.555237 835.650024
/muse/eeg 860.324707 817.555237 819.200195 835.650024
/muse/eeg 865.259644 817.555237 822.490173 840.584961
/muse/eeg 860.324707 819.200195 822.490173 840.584961
/muse/eeg 868.549622 815.910278 825.780151 847.164856
/muse/eeg 858.679749 820.845215 825.780151 837.294983
/muse/eeg 863.614685 820.845215 822.490173 837.294983
/muse/eeg 861.969727 815.910278 824.135132 838.940002
/muse/eeg 861.969727 817.555237 827.425110 845.519897
/muse/eeg 858.679749 820.845215 827.425110 838.940002
/muse/eeg 857.034729 819.200195 825.780151 837.294983
/muse/eeg 861.969727 817.555237 825.780151 845.519897
/muse/eeg 860.324707 815.910278 825.780151 838.940002
/muse/eeg 866.904663 812.620300 829.070068 840.584961
/muse/eeg 860.324707 824.135132 830.715088 840.584961
/muse/eeg 858.679749 820.845215 827.425110 843.874939
/muse/eeg/quantization 1 1 1 1
/muse/eeg 850.454834 824.135132 830.715088 834.005005
/muse/eeg 857.034729 822.490173 829.070068 842.229919
/muse/elements/alpha_relative 0.334150 0.163761 0.214686 0.374600
/muse/elements/beta_relative 0.112235 0.056010 0.072624 0.134214
/muse/elements/delta_relative 0.256921 0.568635 0.528564 0.264033
/muse/elements/gamma_relative 0.058028 0.042698 0.021157 0.049169
/muse/elements/theta_relative 0.238665 0.168896 0.162969 0.177985
/muse/elements/low_freqs_absolute 0.731619 0.731507 0.753545 0.703986
/muse/elements/alpha_absolute 0.560440 0.077937 0.245536 0.632114
/muse/elements/beta_absolute 0.086628 -0.388011 -0.225190 0.186346
/muse/elements/delta_absolute 0.446299 0.618560 0.636830 0.480205
/muse/elements/gamma_absolute -0.199861 -0.505866 -0.760817 -0.249764
/muse/elements/theta_absolute 0.414288 0.091346 0.125837 0.308929
/muse/eeg 858.679749 819.200195 829.070068 842.229919
/muse/eeg 857.034729 817.555237 827.425110 829.070068
/muse/eeg 857.034729 819.200195 827.425110 830.715088
/muse/eeg 857.034729 819.200195 827.425110 832.360046
/muse/eeg 858.679749 820.845215 825.780151 829.070068
/muse/eeg 853.744812 822.490173 827.425110 827.425110
/muse/eeg 857.034729 817.555237 824.135132 834.005005
/muse/eeg 847.164856 812.620300 825.780151 832.360046
/muse/eeg 842.229919 809.330322 827.425110 834.005005
/muse/eeg 837.294983 819.200195 830.715088 829.070068
/muse/eeg 840.584961 820.845215 827.425110 832.360046
/muse/eeg 852.099792 827.425110 819.200195 830.715088
/muse/eeg 868.549622 824.135132 820.845215 848.809875
/muse/drlref 1635483.875000 1645161.250000
/muse/eeg 843.874939 814.265259 834.005005 837.294983
/muse/eeg/quantization 1 1 1 1
/muse/eeg 825.780151 812.620300 840.584961 815.910278
/muse/eeg 829.070068 806.040344 847.164856 822.490173
/muse/eeg 819.200195 799.460449 850.454834 815.910278
/muse/eeg 827.425110 799.460449 848.809875 822.490173
/muse/eeg 822.490173 801.105408 852.099792 820.845215
/muse/eeg 815.910278 801.105408 853.744812 814.265259
/muse/eeg 825.780151 801.105408 852.099792 822.490173
/muse/eeg 830.715088 799.460449 847.164856 827.425110
/muse/elements/alpha_relative 0.314586 0.187596 0.231813 0.371145
/muse/elements/beta_relative 0.115982 0.058532 0.076187 0.130937
/muse/elements/delta_relative 0.251729 0.530775 0.525700 0.256253
/muse/elements/gamma_relative 0.052441 0.046902 0.025264 0.044038
/muse/elements/theta_relative 0.265262 0.176194 0.141036 0.197626
/muse/elements/low_freqs_absolute 0.767311 0.674662 0.687680 0.719511
/muse/elements/alpha_absolute 0.551567 0.098485 0.228862 0.632114
/muse/elements/beta_absolute 0.118218 -0.407346 -0.254391 0.179632
/muse/elements/delta_absolute 0.454762 0.550172 0.584464 0.471240
/muse/elements/gamma_absolute -0.226502 -0.503543 -0.733777 -0.293600
/muse/elements/theta_absolute 0.477502 0.071253 0.013056 0.358415
/muse/eeg 832.360046 801.105408 850.454834 825.780151
/muse/eeg 832.360046 804.395386 852.099792 822.490173
/muse/eeg 837.294983 802.750427 850.454834 829.070068
/muse/eeg 840.584961 797.815491 847.164856 834.005005
/muse/eeg 840.584961 796.170471 847.164856 835.650024
/muse/eeg 837.294983 801.105408 845.519897 832.360046
/muse/eeg 835.650024 804.395386 843.874939 825.780151
/muse/eeg 834.005005 807.685364 848.809875 825.780151
/muse/drlref 1635483.875000 1641935.500000
/muse/eeg 837.294983 802.750427 847.164856 829.070068
/muse/eeg/quantization 1 1 1 1
/muse/eeg 837.294983 802.750427 842.229919 827.425110
/muse/eeg 838.940002 806.040344 843.874939 822.490173
/muse/eeg 842.229919 807.685364 842.229919 829.070068
/muse/eeg 840.584961 807.685364 842.229919 824.135132
/muse/eeg 838.940002 807.685364 840.584961 827.425110
/muse/eeg 840.584961 807.685364 840.584961 825.780151
/muse/eeg 838.940002 802.750427 840.584961 825.780151
/muse/eeg 847.164856 802.750427 838.940002 827.425110
/muse/eeg 847.164856 806.040344 840.584961 832.360046
/muse/eeg 843.874939 809.330322 840.584961 825.780151
/muse/eeg 847.164856 812.620300 837.294983 829.070068
/muse/eeg 845.519897 807.685364 835.650024 829.070068
/muse/eeg 850.454834 806.040344 834.005005 832.360046
/muse/elements/alpha_relative 0.286851 0.208003 0.310441 0.401650
/muse/elements/beta_relative 0.117802 0.059036 0.069129 0.118183
/muse/elements/delta_relative 0.262899 0.499641 0.478951 0.224053
/muse/elements/gamma_relative 0.044650 0.048351 0.028035 0.036099
/muse/elements/theta_relative 0.287799 0.184970 0.113444 0.220014
/muse/elements/low_freqs_absolute 0.842848 0.653060 0.668610 0.765430
/muse/elements/alpha_absolute 0.559590 0.135686 0.387976 0.721828
/muse/elements/beta_absolute 0.173087 -0.411267 -0.264344 0.190537
/muse/elements/delta_absolute 0.521723 0.516275 0.576289 0.468332
/muse/elements/gamma_absolute -0.248241 -0.497982 -0.656298 -0.324519
/muse/elements/theta_absolute 0.561024 0.084717 -0.049219 0.460432
/muse/eeg 850.454834 804.395386 835.650024 835.650024
/muse/eeg 843.874939 807.685364 832.360046 829.070068
/muse/eeg 847.164856 812.620300 830.715088 832.360046
/muse/eeg/quantization 1 1 1 1
/muse/eeg 847.164856 812.620300 830.715088 832.360046
/muse/eeg 852.099792 807.685364 834.005005 834.005005
/muse/eeg 855.389771 807.685364 834.005005 837.294983
/muse/eeg 850.454834 804.395386 837.294983 835.650024
/muse/eeg 848.809875 806.040344 838.940002 832.360046
/muse/eeg 853.744812 810.975281 832.360046 835.650024
/muse/eeg 852.099792 812.620300 832.360046 827.425110
/muse/eeg 848.809875 814.265259 832.360046 824.135132
/muse/eeg 848.809875 809.330322 829.070068 830.715088
/muse/eeg 847.164856 807.685364 834.005005 829.070068
/muse/eeg 850.454834 804.395386 834.005005 834.005005
/muse/eeg 848.809875 809.330322 832.360046 830.715088
/muse/eeg 850.454834 810.975281 830.715088 832.360046
/muse/eeg 843.874939 810.975281 829.070068 829.070068
/muse/eeg 843.874939 807.685364 829.070068 830.715088
/muse/drlref 1635483.875000 1641935.500000
/muse/eeg 837.294983 806.040344 832.360046 824.135132
/muse/eeg/quantization 1 1 1 1
/muse/eeg 834.005005 807.685364 832.360046 822.490173
/muse/eeg 838.940002 809.330322 832.360046 827.425110
/muse/eeg 840.584961 807.685364 832.360046 822.490173
/muse/elements/alpha_relative 0.283430 0.216005 0.346609 0.422997
/muse/elements/beta_relative 0.111917 0.057062 0.060114 0.104599
/muse/elements/delta_relative 0.283098 0.489779 0.460642 0.197057
/muse/elements/gamma_relative 0.035611 0.046930 0.029925 0.029594
/muse/elements/theta_relative 0.285945 0.190223 0.102711 0.245752
/muse/elements/low_freqs_absolute 0.943497 0.677714 0.716844 0.839745
/muse/elements/alpha_absolute 0.640798 0.179668 0.505903 0.819865
/muse/elements/beta_absolute 0.237248 -0.398446 -0.254964 0.213056
/muse/elements/delta_absolute 0.640289 0.535204 0.629428 0.488121
/muse/elements/gamma_absolute -0.260068 -0.483347 -0.557906 -0.335267
/muse/elements/theta_absolute 0.644635 0.124467 -0.022321 0.584025
/muse/eeg 840.584961 806.040344 834.005005 829.070068
/muse/eeg 834.005005 809.330322 832.360046 822.490173
/muse/eeg 832.360046 810.975281 832.360046 820.845215
/muse/eeg 838.940002 809.330322 834.005005 825.780151
/muse/eeg 847.164856 810.975281 832.360046 825.780151
/muse/eeg 848.809875 810.975281 837.294983 829.070068
/muse/eeg 825.780151 804.395386 842.229919 812.620300
/muse/eeg 824.135132 804.395386 837.294983 814.265259
/muse/eeg 832.360046 801.105408 843.874939 824.135132
/muse/eeg 829.070068 797.815491 843.874939 822.490173
/muse/eeg 827.425110 801.105408 845.519897 819.200195
/muse/eeg 825.780151 799.460449 848.809875 819.200195
/muse/drlref 1635483.875000 1641935.500000
/muse/eeg 820.845215 796.170471 848.809875 810.975281
/muse/eeg/quantization 1 1 1 1
/muse/eeg 825.780151 792.880554 845.519897 819.200195
/muse/eeg 830.715088 797.815491 845.519897 824.135132
/muse/eeg 830.715088 794.525513 845.519897 819.200195
/muse/eeg 829.070068 796.170471 843.874939 822.490173
/muse/eeg 837.294983 804.395386 843.874939 824.135132
/muse/eeg 845.519897 802.750427 842.229919 835.650024
/muse/eeg 835.650024 807.685364 843.874939 832.360046
/muse/eeg 830.715088 806.040344 840.584961 824.135132
/muse/eeg 837.294983 804.395386 840.584961 827.425110
/muse/elements/alpha_relative 0.267471 0.200607 0.327743 0.404171
/muse/elements/beta_relative 0.106409 0.055066 0.053785 0.097276
/muse/elements/delta_relative 0.317224 0.505287 0.480370 0.193033
/muse/elements/gamma_relative 0.029867 0.045261 0.031105 0.026554
/muse/elements/theta_relative 0.279030 0.193779 0.106998 0.278966
/muse/elements/low_freqs_absolute 1.045234 0.733012 0.807193 0.922436
/muse/elements/alpha_absolute 0.697079 0.190841 0.553815 0.855060
/muse/elements/beta_absolute 0.296779 -0.370621 -0.231060 0.236503
/muse/elements/delta_absolute 0.771169 0.592032 0.719858 0.534127
/muse/elements/gamma_absolute -0.255009 -0.455785 -0.468888 -0.327371
/muse/elements/theta_absolute 0.715453 0.175801 0.067660 0.694047
/muse/eeg 835.650024 804.395386 838.940002 830.715088
/muse/eeg 835.650024 809.330322 838.940002 824.135132
/muse/eeg 842.229919 809.330322 840.584961 832.360046
/muse/eeg 837.294983 809.330322 840.584961 827.425110
/muse/eeg 840.584961 807.685364 835.650024 830.715088
/muse/eeg 843.874939 806.040344 835.650024 832.360046
/muse/eeg 838.940002 807.685364 838.940002 827.425110
/muse/eeg/quantization 1 1 1 1
/muse/eeg 837.294983 809.330322 834.005005 824.135132
/muse/eeg 843.874939 807.685364 840.584961 834.005005
/muse/eeg 845.519897 804.395386 838.940002 835.650024
/muse/eeg 840.584961 801.105408 838.940002 834.005005
/muse/eeg 838.940002 810.975281 835.650024 827.425110
/muse/eeg 842.229919 812.620300 830.715088 829.070068
/muse/eeg 847.164856 809.330322 829.070068 837.294983
/muse/eeg 850.454834 809.330322 834.005005 837.294983
/muse/eeg 847.164856 807.685364 837.294983 838.940002
/muse/eeg 845.519897 809.330322 837.294983 832.360046
/muse/eeg 842.229919 810.975281 838.940002 832.360046
/muse/eeg 842.229919 810.975281 837.294983 832.360046
/muse/eeg 838.940002 810.975281 837.294983 825.780151
/muse/eeg 840.584961 810.975281 837.294983 829.070068
/muse/eeg 838.940002 810.975281 834.005005 829.070068
/muse/elements/alpha_relative 0.236049 0.177784 0.287817 0.371970
/muse/elements/beta_relative 0.103675 0.054317 0.050078 0.092842
/muse/elements/delta_relative 0.357585 0.527754 0.513865 0.201310
/muse/elements/gamma_relative 0.027721 0.044887 0.031398 0.025548
/muse/elements/theta_relative 0.274970 0.195259 0.116842 0.308331
/muse/elements/low_freqs_absolute 1.129324 0.792336 0.898906 0.991816
/muse/elements/alpha_absolute 0.701229 0.183083 0.558195 0.855060
/muse/elements/beta_absolute 0.343902 -0.331877 -0.201271 0.252295
/muse/elements/delta_absolute 0.881605 0.655621 0.809928 0.588417
/muse/elements/gamma_absolute -0.228971 -0.414691 -0.404012 -0.308097
/muse/elements/theta_absolute 0.767511 0.223801 0.166677 0.773569
/muse/drlref 1635483.875000 1641935.500000
/muse/eeg 840.584961 809.330322 838.940002 832.360046
/muse/eeg/quantization 1 1 1 1
/muse/eeg 840.584961 806.040344 832.360046 835.650024
/muse/eeg 842.229919 807.685364 827.425110 829.070068
/muse/eeg 840.584961 807.685364 829.070068 834.005005
/muse/eeg 842.229919 812.620300 830.715088 830.715088
/muse/eeg 840.584961 812.620300 834.005005 825.780151
/muse/eeg 837.294983 814.265259 830.715088 822.490173
/muse/eeg 842.229919 810.975281 829.070068 827.425110
/muse/eeg 843.874939 809.330322 829.070068 827.425110
/muse/eeg 850.454834 814.265259 827.425110 834.005005
/muse/eeg 850.454834 812.620300 834.005005 837.294983
/muse/eeg 829.070068 809.330322 840.584961 817.555237
/muse/eeg 827.425110 806.040344 838.940002 819.200195
/muse/eeg 825.780151 801.105408 843.874939 815.910278
/muse/eeg 829.070068 799.460449 845.519897 815.910278
/muse/eeg 825.780151 802.750427 845.519897 815.910278
/muse/drlref 1635483.875000 1641935.500000
/muse/eeg 827.425110 804.395386 848.809875 817.555237
/muse/eeg/quantization 1 1 1 1
/muse/eeg 822.490173 802.750427 847.164856 809.330322
/muse/eeg 822.490173 801.105408 843.874939 812.620300
/muse/eeg 829.070068 797.815491 843.874939 820.845215
/muse/eeg 824.135132 802.750427 842.229919 815.910278
/muse/eeg 825.780151 806.040344 840.584961 815.910278
/muse/elements/alpha_relative 0.213808 0.156933 0.258167 0.351385
/muse/elements/beta_relative 0.101450 0.055106 0.047570 0.088813
/muse/elements/delta_relative 0.387091 0.545085 0.536895 0.208457
/muse/elements/gamma_relative 0.027655 0.046390 0.030836 0.025387
/muse/elements/theta_relative 0.269996 0.196487 0.126532 0.325957
/muse/elements/low_freqs_absolute 1.188828 0.838661 0.969458 1.037156
/muse/elements/alpha_absolute 0.701229 0.164223 0.559565 0.855060
/muse/elements/beta_absolute 0.377457 -0.290295 -0.175000 0.257756
/muse/elements/delta_absolute 0.959018 0.704972 0.877554 0.628294
/muse/elements/gamma_absolute -0.187017 -0.365071 -0.363272 -0.286106
/muse/elements/theta_absolute 0.802563 0.261842 0.249865 0.822438
/muse/eeg 829.070068 806.040344 838.940002 822.490173
/muse/eeg 832.360046 806.040344 840.584961 825.780151
/muse/eeg 832.360046 807.685364 840.584961 817.555237
/muse/eeg 835.650024 809.330322 830.715088 822.490173
/muse/eeg 835.650024 809.330322 829.070068 817.555237
/muse/eeg 837.294983 804.395386 837.294983 822.490173
/muse/eeg 832.360046 806.040344 838.940002 815.910278
/muse/eeg 838.940002 806.040344 834.005005 820.845215
/muse/eeg 838.940002 809.330322 827.425110 824.135132
/muse/eeg 842.229919 809.330322 834.005005 822.490173
/muse/eeg 842.229919 802.750427 832.360046 825.780151
/muse/eeg/quantization 1 1 1 1
/muse/eeg 829.070068 802.750427 835.650024 810.975281
/muse/eeg 832.360046 809.330322 837.294983 809.330322
/muse/eeg 835.650024 809.330322 835.650024 820.845215
/muse/eeg 834.005005 812.620300 838.940002 820.845215
/muse/eeg 837.294983 814.265259 837.294983 819.200195
/muse/eeg 834.005005 814.265259 835.650024 819.200195
/muse/eeg 835.650024 814.265259 834.005005 817.555237
/muse/eeg 835.650024 807.685364 834.005005 820.845215
/muse/eeg 837.294983 812.620300 837.294983 820.845215
/muse/eeg 837.294983 814.265259 829.070068 820.845215
/muse/eeg 837.294983 812.620300 830.715088 825.780151
/muse/elements/alpha_relative 0.200890 0.148084 0.240201 0.340675
/muse/elements/beta_relative 0.100199 0.056481 0.046066 0.086066
/muse/elements/delta_relative 0.403931 0.548675 0.546730 0.210227
/muse/elements/gamma_relative 0.028910 0.048978 0.030278 0.025844
/muse/elements/theta_relative 0.266069 0.197782 0.136725 0.337187
/muse/elements/low_freqs_absolute 1.224923 0.866720 1.013699 1.058681
/muse/elements/alpha_absolute 0.701808 0.164223 0.559565 0.852705
/muse/elements/beta_absolute 0.399714 -0.254385 -0.157631 0.255199
/muse/elements/delta_absolute 1.005156 0.733030 0.916762 0.643054
/muse/elements/gamma_absolute -0.140099 -0.316287 -0.339884 -0.267281
/muse/elements/theta_absolute 0.823843 0.289902 0.314839 0.848236
/muse/eeg 837.294983 812.620300 829.070068 819.200195
/muse/eeg 840.584961 806.040344 834.005005 824.135132
/muse/eeg 835.650024 809.330322 838.940002 814.265259
/muse/eeg 837.294983 807.685364 832.360046 820.845215
/muse/eeg 837.294983 809.330322 840.584961 825.780151
/muse/drlref 1635483.875000 1641935.500000
/muse/eeg 837.294983 809.330322 835.650024 825.780151
/muse/eeg/quantization 1 1 1 1
/muse/eeg 834.005005 810.975281 837.294983 820.845215
/muse/eeg 834.005005 814.265259 842.229919 817.555237
/muse/eeg 840.584961 810.975281 842.229919 830.715088
/muse/eeg 850.454834 809.330322 845.519897 842.229919
/muse/eeg 860.324707 810.975281 843.874939 848.809875
/muse/eeg 840.584961 824.135132 834.005005 822.490173
/muse/eeg 842.229919 824.135132 829.070068 817.555237
/muse/eeg 843.874939 824.135132 825.780151 815.910278
/muse/eeg 843.874939 827.425110 824.135132 810.975281
/muse/eeg 852.099792 825.780151 819.200195 812.620300
/muse/eeg 850.454834 832.360046 812.620300 806.040344
/muse/eeg 847.164856 837.294983 806.040344 797.815491
/muse/eeg 850.454834 835.650024 797.815491 806.040344
/muse/eeg 848.809875 834.005005 797.815491 814.265259
/muse/eeg 838.940002 840.584961 792.880554 804.395386
/muse/drlref 1635483.875000 1641935.500000
/muse/eeg 840.584961 842.229919 796.170471 802.750427
/muse/elements/alpha_relative 0.193819 0.147273 0.243311 0.338701
/muse/elements/beta_relative 0.099961 0.058161 0.044553 0.084522
/muse/elements/delta_relative 0.411032 0.542117 0.536466 0.205130
/muse/elements/gamma_relative 0.030735 0.051990 0.029858 0.026421
/muse/elements/theta_relative 0.264454 0.200458 0.145812 0.345226
/muse/elements/low_freqs_absolute 1.244095 0.877975 1.034778 1.063532
/muse/elements/alpha_absolute 0.701874 0.175358 0.586978 0.852705
/muse/elements/beta_absolute 0.414307 -0.228132 -0.150301 0.249860
/muse/elements/delta_absolute 1.028354 0.741327 0.930359 0.634918
/muse/elements/gamma_absolute -0.097890 -0.276844 -0.324118 -0.255167
/muse/elements/theta_absolute 0.836828 0.309258 0.364611 0.860992
/muse/eeg/quantization 1 1 1 1
/muse/eeg 848.809875 842.229919 802.750427 809.330322
/muse/eeg 848.809875 842.229919 799.460449 809.330322
/muse/eeg 848.809875 840.584961 801.105408 814.265259
/muse/eeg 843.874939 834.005005 806.040344 814.265259
/muse/eeg 842.229919 832.360046 806.040344 812.620300
/muse/eeg 850.454834 835.650024 806.040344 824.135132
/muse/eeg 855.389771 835.650024 797.815491 824.135132
/muse/eeg 852.099792 840.584961 797.815491 819.200195
/muse/eeg 861.969727 832.360046 804.395386 825.780151
/muse/eeg 863.614685 827.425110 809.330322 832.360046
/muse/eeg 860.324707 827.425110 817.555237 830.715088
/muse/eeg 852.099792 827.425110 817.555237 825.780151
/muse/eeg 850.454834 830.715088 817.555237 827.425110
/muse/eeg 860.324707 830.715088 819.200195 827.425110
/muse/eeg 861.969727 827.425110 817.555237 835.650024
/muse/eeg 858.679749 825.780151 814.265259 832.360046
/muse/eeg/quantization 1 1 1 1
/muse/eeg 855.389771 824.135132 814.265259 829.070068
/muse/eeg 857.034729 825.780151 815.910278 827.425110
/muse/eeg 863.614685 825.780151 817.555237 837.294983
/muse/eeg 863.614685 827.425110 820.845215 837.294983
/muse/eeg 860.324707 825.780151 820.845215 832.360046
/muse/eeg 853.744812 827.425110 817.555237 825.780151
/muse/elements/alpha_relative 0.191319 0.153945 0.251416 0.336229
/muse/elements/beta_relative 0.100209 0.059824 0.043475 0.084717
/muse/elements/delta_relative 0.412734 0.529539 0.519764 0.198131
/muse/elements/gamma_relative 0.032617 0.054626 0.030247 0.027160
/muse/elements/theta_relative 0.263120 0.202067 0.155098 0.353763
/muse/elements/low_freqs_absolute 1.253362 0.877038 1.039705 1.061426
/muse/elements/alpha_absolute 0.705268 0.200126 0.610884 0.846205
/muse/elements/beta_absolute 0.424415 -0.210364 -0.151267 0.247542
/muse/elements/delta_absolute 1.039179 0.736659 0.926297 0.616524
/muse/elements/gamma_absolute -0.063041 -0.249842 -0.308825 -0.246506
/muse/elements/theta_absolute 0.843664 0.318257 0.401097 0.868282
/muse/eeg 860.324707 822.490173 822.490173 830.715088
/muse/eeg 860.324707 820.845215 820.845215 834.005005
/muse/eeg 861.969727 820.845215 820.845215 834.005005
/muse/eeg 860.324707 822.490173 822.490173 829.070068
/muse/eeg 865.259644 822.490173 822.490173 834.005005
/muse/eeg 863.614685 820.845215 822.490173 832.360046
/muse/eeg 860.324707 815.910278 829.070068 832.360046
/muse/eeg 857.034729 817.555237 825.780151 825.780151
/muse/eeg 858.679749 820.845215 819.200195 829.070068
/muse/drlref 1635483.875000 1641935.500000
/muse/eeg 855.389771 822.490173 824.135132 830.715088
/muse/eeg/quantization 1 1 1 1
/muse/eeg 860.324707 819.200195 822.490173 837.294983
/muse/eeg 852.099792 817.555237 824.135132 830.715088
/muse/eeg 853.744812 819.200195 830.715088 830.715088
/muse/eeg 848.809875 815.910278 827.425110 825.780151
/muse/eeg 852.099792 819.200195 829.070068 824.135132
/muse/eeg 855.389771 817.555237 829.070068 829.070068
/muse/eeg 852.099792 820.845215 832.360046 827.425110
/muse/eeg 855.389771 817.555237 827.425110 832.360046
/muse/eeg 852.099792 822.490173 829.070068 827.425110
/muse/eeg 853.744812 815.910278 829.070068 834.005005
/muse/eeg 845.519897 820.845215 832.360046 820.845215
/muse/eeg 847.164856 815.910278 830.715088 822.490173
/muse/elements/alpha_relative 0.186919 0.154505 0.261134 0.329437
/muse/elements/beta_relative 0.100798 0.061648 0.042464 0.086576
/muse/elements/delta_relative 0.415306 0.523342 0.501006 0.193294
/muse/elements/gamma_relative 0.034460 0.056589 0.030948 0.028290
/muse/elements/theta_relative 0.262516 0.203916 0.164447 0.362403
/muse/elements/low_freqs_absolute 1.259803 0.875408 1.041910 1.060098
/muse/elements/alpha_absolute 0.700340 0.202664 0.635656 0.833033
/muse/elements/beta_absolute 0.432141 -0.196359 -0.153190 0.252657
/muse/elements/delta_absolute 1.047055 0.732506 0.918636 0.601479
/muse/elements/gamma_absolute -0.033998 -0.233546 -0.290574 -0.233108
/muse/elements/theta_absolute 0.847843 0.323171 0.434820 0.874452
/muse/eeg 847.164856 810.975281 829.070068 824.135132
/muse/eeg 848.809875 817.555237 829.070068 819.200195
/muse/eeg 852.099792 815.910278 829.070068 825.780151
/muse/drlref 1635483.875000 1641935.500000
/muse/eeg 850.454834 825.780151 820.845215 820.845215
/muse/eeg/quantization 1 1 1 1
/muse/eeg 863.614685 820.845215 820.845215 834.005005
/muse/eeg 847.164856 809.330322 834.005005 825.780151
/muse/eeg 838.940002 806.040344 838.940002 820.845215
/muse/eeg 829.070068 802.750427 845.519897 817.555237
/muse/eeg 817.555237 804.395386 847.164856 804.395386
/muse/eeg 824.135132 801.105408 845.519897 815.910278
/muse/eeg 819.200195 792.880554 848.809875 820.845215
/muse/eeg 810.975281 791.235535 853.744812 815.910278
/muse/eeg 812.620300 794.525513 848.809875 814.265259
/muse/eeg 820.845215 796.170471 847.164856 822.490173
/muse/eeg 825.780151 796.170471 848.809875 824.135132
/muse/eeg 829.070068 792.880554 848.809875 827.425110
/muse/eeg 825.780151 797.815491 842.229919 824.135132
/muse/eeg 829.070068 794.525513 845.519897 827.425110
/muse/eeg 827.425110 789.590576 842.229919 830.715088
/muse/eeg 829.070068 794.525513 840.584961 829.070068
/muse/eeg/quantization 1 1 1 1
/muse/eeg 832.360046 797.815491 840.584961 830.715088
/muse/eeg 830.715088 804.395386 837.294983 824.135132
/muse/elements/alpha_relative 0.183637 0.159977 0.265729 0.318648
/muse/elements/beta_relative 0.100436 0.061053 0.041114 0.089687
/muse/elements/delta_relative 0.420067 0.522854 0.488429 0.191936
/muse/elements/gamma_relative 0.036017 0.055849 0.031122 0.030058
/muse/elements/theta_relative 0.259843 0.200267 0.173607 0.369671
/muse/elements/low_freqs_absolute 1.268831 0.890680 1.059152 1.063976
/muse/elements/alpha_absolute 0.700340 0.235526 0.662709 0.817855
/muse/elements/beta_absolute 0.438268 -0.182828 -0.147741 0.267274
/muse/elements/delta_absolute 1.059698 0.749849 0.927072 0.597700
/muse/elements/gamma_absolute -0.007109 -0.221514 -0.268664 -0.207495
/muse/elements/theta_absolute 0.851091 0.333078 0.477837 0.882359
/muse/eeg 832.360046 799.460449 837.294983 825.780151
/muse/eeg 834.005005 797.815491 838.940002 829.070068
/muse/eeg 838.940002 799.460449 838.940002 837.294983
/muse/eeg 834.005005 804.395386 840.584961 832.360046
/muse/eeg 838.940002 806.040344 840.584961 830.715088
/muse/eeg 845.519897 804.395386 838.940002 834.005005
/muse/eeg 845.519897 801.105408 837.294983 835.650024
/muse/eeg 840.584961 806.040344 837.294983 830.715088
/muse/eeg 842.229919 807.685364 837.294983 825.780151
/muse/eeg 847.164856 806.040344 834.005005 837.294983
/muse/eeg 848.809875 807.685364 837.294983 835.650024
/muse/eeg 853.744812 801.105408 842.229919 843.874939
/muse/eeg 845.519897 806.040344 840.584961 838.940002
/muse/drlref 1638709.625000 1641935.500000
/muse/eeg 845.519897 810.975281 838.940002 840.584961
/muse/eeg/quantization 1 1 1 1
/muse/eeg 845.519897 812.620300 835.650024 837.294983
/muse/eeg 842.229919 810.975281 835.650024 830.715088
/muse/eeg 845.519897 809.330322 837.294983 835.650024
/muse/eeg 847.164856 807.685364 835.650024 832.360046
/muse/eeg 843.874939 806.040344 832.360046 827.425110
/muse/eeg 837.294983 812.620300 832.360046 827.425110
/muse/eeg 842.229919 806.040344 834.005005 830.715088
/muse/eeg 834.005005 809.330322 832.360046 825.780151
/muse/elements/alpha_relative 0.182798 0.153415 0.257243 0.304682
/muse/elements/beta_relative 0.098395 0.057863 0.039641 0.093431
/muse/elements/delta_relative 0.428745 0.540318 0.489677 0.193394
/muse/elements/gamma_relative 0.037005 0.053153 0.030248 0.032404
/muse/elements/theta_relative 0.253057 0.195252 0.183191 0.376088
/muse/elements/low_freqs_absolute 1.283501 0.933698 1.101922 1.073825
/muse/elements/alpha_absolute 0.711815 0.252942 0.684336 0.802191
/muse/elements/beta_absolute 0.442816 -0.170528 -0.127860 0.288835
/muse/elements/delta_absolute 1.082042 0.799723 0.963901 0.604788
/muse/elements/gamma_absolute 0.018107 -0.207400 -0.245317 -0.171051
/muse/elements/theta_absolute 0.853061 0.357669 0.536896 0.893634
/muse/eeg 837.294983 812.620300 835.650024 825.780151
/muse/eeg 842.229919 809.330322 834.005005 827.425110
/muse/eeg 842.229919 807.685364 832.360046 829.070068
/muse/eeg 835.650024 806.040344 834.005005 824.135132
/muse/eeg 837.294983 804.395386 829.070068 830.715088
/muse/eeg 838.940002 807.685364 835.650024 835.650024
/muse/eeg 835.650024 812.620300 834.005005 829.070068
/muse/drlref 1635483.875000 1645161.250000
/muse/eeg 838.940002 809.330322 834.005005 830.715088
/muse/eeg/quantization 1 1 1 1
/muse/eeg 829.070068 810.975281 835.650024 814.265259
/muse/eeg 832.360046 807.685364 830.715088 819.200195
/muse/eeg 834.005005 807.685364 837.294983 824.135132
/muse/eeg 834.005005 812.620300 832.360046 825.780151
/muse/eeg 830.715088 812.620300 830.715088 820.845215
/muse/eeg 829.070068 815.910278 834.005005 815.910278
/muse/eeg 835.650024 814.265259 832.360046 822.490173
/muse/eeg 832.360046 807.685364 830.715088 825.780151
/muse/eeg 830.715088 807.685364 834.005005 824.135132
/muse/eeg 827.425110 810.975281 834.005005 815.910278
/muse/eeg 834.005005 806.040344 834.005005 822.490173
/muse/eeg 840.584961 809.330322 830.715088 827.425110
/muse/eeg 848.809875 812.620300 827.425110 837.294983
/muse/eeg 834.005005 807.685364 837.294983 825.780151
/muse/elements/alpha_relative 0.179100 0.143596 0.241734 0.292100
/muse/elements/beta_relative 0.095290 0.052208 0.038247 0.096534
/muse/elements/delta_relative 0.443716 0.566429 0.501845 0.195099
/muse/elements/gamma_relative 0.037520 0.048971 0.028308 0.034846
/muse/elements/theta_relative 0.244374 0.188796 0.189866 0.381420
/muse/elements/low_freqs_absolute 1.305080 0.999999 1.164442 1.087922
/muse/elements/alpha_absolute 0.720529 0.279063 0.707855 0.792640
/muse/elements/beta_absolute 0.446480 -0.160344 -0.092887 0.311790
/muse/elements/delta_absolute 1.114539 0.875068 1.025087 0.617363
/muse/elements/gamma_absolute 0.041699 -0.188137 -0.223567 -0.130733
/muse/elements/theta_absolute 0.855490 0.397915 0.602965 0.908512
/muse/eeg 822.490173 807.685364 837.294983 815.910278
/muse/eeg 822.490173 801.105408 840.584961 819.200195
/muse/eeg 819.200195 799.460449 845.519897 817.555237
/muse/eeg/quantization 1 1 1 1
/muse/eeg 825.780151 801.105408 845.519897 822.490173
/muse/eeg 824.135132 801.105408 848.809875 817.555237
/muse/eeg 815.910278 796.170471 850.454834 814.265259
/muse/eeg 817.555237 796.170471 847.164856 815.910278
/muse/eeg 829.070068 797.815491 847.164856 825.780151
/muse/eeg 820.845215 799.460449 845.519897 819.200195
/muse/eeg 825.780151 797.815491 842.229919 820.845215
/muse/eeg 829.070068 796.170471 842.229919 822.490173
/muse/eeg 832.360046 797.815491 838.940002 820.845215
/muse/eeg 832.360046 799.460449 838.940002 824.135132
/muse/eeg 827.425110 804.395386 837.294983 819.200195
/muse/eeg 830.715088 802.750427 835.650024 819.200195
/muse/eeg 830.715088 804.395386 837.294983 819.200195
/muse/eeg 834.005005 796.170471 837.294983 825.780151
/muse/eeg 827.425110 802.750427 837.294983 819.200195
/muse/drlref 1635483.875000 1645161.250000
/muse/eeg 830.715088 804.395386 837.294983 822.490173
/muse/eeg/quantization 1 1 1 1
/muse/eeg 829.070068 804.395386 840.584961 822.490173
/muse/eeg 832.360046 804.395386 840.584961 829.070068
/muse/eeg 832.360046 802.750427 838.940002 827.425110
/muse/elements/alpha_relative 0.171209 0.137386 0.218416 0.281051
/muse/elements/beta_relative 0.092280 0.046188 0.037873 0.098629
/muse/elements/delta_relative 0.462739 0.589023 0.523231 0.196881
/muse/elements/gamma_relative 0.037565 0.044737 0.026329 0.036927
/muse/elements/theta_relative 0.236208 0.182666 0.194150 0.386511
/muse/elements/low_freqs_absolute 1.331446 1.071592 1.228954 1.102927
/muse/elements/alpha_absolute 0.720529 0.322094 0.712490 0.785751
/muse/elements/beta_absolute 0.452108 -0.151320 -0.048463 0.330971
/muse/elements/delta_absolute 1.152338 0.954282 1.091898 0.631171
/muse/elements/gamma_absolute 0.061780 -0.165183 -0.206359 -0.095688
/muse/elements/theta_absolute 0.860296 0.445808 0.661341 0.924128
/muse/eeg 829.070068 804.395386 838.940002 824.135132
/muse/eeg 830.715088 810.975281 838.940002 824.135132
/muse/eeg 838.940002 809.330322 838.940002 827.425110
/muse/eeg 838.940002 806.040344 837.294983 834.005005
/muse/eeg 838.940002 810.975281 837.294983 829.070068
/muse/eeg 838.940002 809.330322 834.005005 820.845215
/muse/eeg 837.294983 809.330322 834.005005 824.135132
/muse/eeg 835.650024 810.975281 835.650024 824.135132
/muse/eeg 834.005005 810.975281 834.005005 825.780151
/muse/eeg 832.360046 812.620300 835.650024 822.490173
/muse/eeg 832.360046 812.620300 837.294983 824.135132
/muse/eeg 832.360046 807.685364 835.650024 825.780151
/muse/drlref 1635483.875000 1641935.500000
/muse/eeg 835.650024 807.685364 834.005005 825.780151
/muse/eeg/quantization 1 1 1 1
/muse/eeg 832.360046 809.330322 832.360046 822.490173
/muse/eeg 838.940002 801.105408 835.650024 824.135132
/muse/eeg 853.744812 801.105408 842.229919 840.584961
/muse/eeg 850.454834 810.975281 835.650024 835.650024
/muse/eeg 835.650024 817.555237 824.135132 812.620300
/muse/eeg 842.229919 822.490173 824.135132 810.975281
/muse/eeg 835.650024 824.135132 815.910278 801.105408
/muse/eeg 847.164856 824.135132 815.910278 815.910278
/muse/eeg 848.809875 829.070068 810.975281 814.265259
/muse/elements/alpha_relative 0.164548 0.125442 0.200667 0.275777
/muse/elements/beta_relative 0.089773 0.042119 0.038256 0.099190
/muse/elements/delta_relative 0.478587 0.609901 0.541782 0.198709
/muse/elements/gamma_relative 0.037328 0.042155 0.024552 0.038460
/muse/elements/theta_relative 0.229765 0.180384 0.194743 0.387864
/muse/elements/low_freqs_absolute 1.355543 1.130942 1.279883 1.113411
/muse/elements/alpha_absolute 0.721587 0.331602 0.715171 0.785648
/muse/elements/beta_absolute 0.458440 -0.142367 -0.004602 0.341556
/muse/elements/delta_absolute 1.185256 1.018418 1.146520 0.643306
/muse/elements/gamma_absolute 0.077326 -0.141995 -0.197227 -0.069897
/muse/elements/theta_absolute 0.866578 0.489356 0.702158 0.933769
/muse/eeg 838.940002 838.940002 804.395386 806.040344
/muse/eeg 835.650024 838.940002 802.750427 804.395386
/muse/eeg 843.874939 834.005005 801.105408 814.265259
/muse/eeg 840.584961 835.650024 801.105408 815.910278
/muse/eeg 837.294983 837.294983 804.395386 807.685364
/muse/eeg 842.229919 832.360046 804.395386 814.265259
/muse/eeg 842.229919 830.715088 807.685364 819.200195
/muse/eeg/quantization 1 1 1 1
/muse/eeg 845.519897 834.005005 804.395386 817.555237
/muse/eeg 845.519897 830.715088 804.395386 815.910278
/muse/eeg 845.519897 829.070068 809.330322 817.555237
/muse/eeg 855.389771 827.425110 812.620300 824.135132
/muse/eeg 850.454834 829.070068 809.330322 824.135132
/muse/eeg 848.809875 829.070068 807.685364 822.490173
/muse/eeg 847.164856 837.294983 810.975281 819.200195
/muse/eeg 848.809875 834.005005 810.975281 824.135132
/muse/eeg 848.809875 827.425110 812.620300 820.845215
/muse/eeg 855.389771 829.070068 814.265259 829.070068
/muse/eeg 850.454834 827.425110 815.910278 827.425110
/muse/eeg 848.809875 827.425110 817.555237 824.135132
/muse/eeg 853.744812 825.780151 820.845215 830.715088
/muse/eeg 852.099792 825.780151 822.490173 827.425110
/muse/eeg 855.389771 822.490173 820.845215 832.360046
/muse/elements/alpha_relative 0.161713 0.116069 0.189858 0.275410
/muse/elements/beta_relative 0.087988 0.039788 0.039165 0.098950
/muse/elements/delta_relative 0.488061 0.623448 0.554473 0.202659
/muse/elements/gamma_relative 0.037342 0.041044 0.022982 0.039901
/muse/elements/theta_relative 0.224896 0.179652 0.193523 0.383080
/muse/elements/low_freqs_absolute 1.369768 1.169832 1.310642 1.113372
/muse/elements/alpha_absolute 0.725451 0.329778 0.715171 0.785648
/muse/elements/beta_absolute 0.461128 -0.135187 0.029641 0.341086
/muse/elements/delta_absolute 1.205179 1.059863 1.180623 0.652433
/muse/elements/gamma_absolute 0.088901 -0.121688 -0.201872 -0.053352
/muse/elements/theta_absolute 0.868685 0.519494 0.723475 0.928957
/muse/drlref 1635483.875000 1641935.500000
/muse/eeg 848.809875 827.425110 819.200195 825.780151
/muse/eeg/quantization 1 1 1 1
/muse/eeg 852.099792 825.780151 819.200195 825.780151
/muse/eeg 850.454834 820.845215 817.555237 827.425110
/muse/eeg 857.034729 817.555237 817.555237 834.005005
/muse/eeg 855.389771 820.845215 819.200195 830.715088
/muse/eeg 848.809875 822.490173 819.200195 824.135132
/muse/eeg 848.809875 824.135132 820.845215 819.200195
/muse/eeg 853.744812 820.845215 820.845215 824.135132
/muse/eeg 850.454834 817.555237 820.845215 822.490173
/muse/eeg 847.164856 820.845215 819.200195 819.200195
/muse/eeg 853.744812 820.845215 820.845215 829.070068
/muse/eeg 848.809875 820.845215 820.845215 822.490173
/muse/eeg 853.744812 817.555237 822.490173 825.780151
/muse/eeg 848.809875 817.555237 824.135132 825.780151
/muse/eeg 845.519897 820.845215 824.135132 819.200195
/muse/eeg 848.809875 819.200195 822.490173 822.490173
/muse/drlref 1635483.875000 1641935.500000
/muse/eeg 843.874939 815.910278 824.135132 820.845215
/muse/eeg/quantization 1 1 1 1
/muse/eeg 848.809875 814.265259 824.135132 824.135132
/muse/eeg 842.229919 815.910278 825.780151 817.555237
/muse/eeg 847.164856 812.620300 827.425110 824.135132
/muse/eeg 843.874939 817.555237 827.425110 820.845215
/muse/eeg 845.519897 815.910278 825.780151 820.845215
/muse/elements/alpha_relative 0.162380 0.109768 0.186154 0.282234
/muse/elements/beta_relative 0.087056 0.038992 0.040394 0.098845
/muse/elements/delta_relative 0.490935 0.630594 0.560024 0.207518
/muse/elements/gamma_relative 0.038292 0.041143 0.021382 0.042024
/muse/elements/theta_relative 0.221337 0.179503 0.192045 0.369379
/muse/elements/low_freqs_absolute 1.367849 1.188136 1.321557 1.096136
/muse/elements/alpha_absolute 0.725734 0.320076 0.715171 0.785648
/muse/elements/beta_absolute 0.455002 -0.129428 0.051614 0.329994
/muse/elements/delta_absolute 1.206227 1.079349 1.193506 0.652093
/muse/elements/gamma_absolute 0.098307 -0.106109 -0.224650 -0.041469
/muse/elements/theta_absolute 0.860257 0.533672 0.728703 0.902510
/muse/eeg 843.874939 815.910278 827.425110 820.845215
/muse/eeg 843.874939 819.200195 827.425110 817.555237
/muse/eeg 842.229919 812.620300 824.135132 819.200195
/muse/eeg 842.229919 810.975281 825.780151 822.490173
/muse/eeg 840.584961 810.975281 827.425110 824.135132
/muse/eeg 835.650024 814.265259 827.425110 814.265259
/muse/eeg 842.229919 812.620300 829.070068 819.200195
/muse/eeg 847.164856 815.910278 824.135132 824.135132
/muse/eeg 857.034729 815.910278 820.845215 837.294983
/muse/eeg 842.229919 812.620300 832.360046 830.715088
/muse/eeg 830.715088 806.040344 835.650024 819.200195
/muse/eeg/quantization 1 1 1 1
/muse/eeg 819.200195 807.685364 840.584961 810.975281
/muse/eeg 820.845215 802.750427 845.519897 810.975281
/muse/eeg 822.490173 801.105408 842.229919 820.845215
/muse/eeg 817.555237 797.815491 848.809875 815.910278
/muse/eeg 814.265259 797.815491 848.809875 809.330322
/muse/eeg 817.555237 796.170471 847.164856 814.265259
/muse/eeg 820.845215 796.170471 843.874939 820.845215
/muse/eeg 817.555237 797.815491 842.229919 815.910278
/muse/eeg 822.490173 791.235535 842.229919 822.490173
/muse/eeg 820.845215 797.815491 842.229919 820.845215
/muse/eeg 829.070068 801.105408 842.229919 825.780151
/muse/elements/alpha_relative 0.163270 0.103750 0.186462 0.294752
/muse/elements/beta_relative 0.087202 0.039054 0.041652 0.100370
/muse/elements/delta_relative 0.490633 0.637079 0.561263 0.210086
/muse/elements/gamma_relative 0.040430 0.041741 0.019553 0.045488
/muse/elements/theta_relative 0.218466 0.178376 0.191070 0.349304
/muse/elements/low_freqs_absolute 1.348786 1.194503 1.320466 1.058707
/muse/elements/alpha_absolute 0.710985 0.299090 0.714645 0.780448
/muse/elements/beta_absolute 0.438605 -0.125230 0.063696 0.312594
/muse/elements/delta_absolute 1.188836 1.087296 1.193222 0.633389
/muse/elements/gamma_absolute 0.104784 -0.096330 -0.264735 -0.031108
/muse/elements/theta_absolute 0.837463 0.534441 0.725249 0.854196
/muse/eeg 825.780151 799.460449 840.584961 824.135132
/muse/eeg 820.845215 802.750427 840.584961 815.910278
/muse/eeg 824.135132 801.105408 840.584961 820.845215
/muse/eeg 830.715088 804.395386 840.584961 824.135132
/muse/drlref 1635483.875000 1645161.250000
/muse/eeg 830.715088 802.750427 840.584961 829.070068
/muse/eeg/quantization 1 1 1 1
/muse/eeg 827.425110 807.685364 840.584961 819.200195
/muse/eeg 835.650024 804.395386 842.229919 825.780151
/muse/eeg 832.360046 802.750427 840.584961 825.780151
/muse/eeg 837.294983 804.395386 840.584961 825.780151
/muse/eeg 834.005005 802.750427 840.584961 822.490173
/muse/eeg 829.070068 807.685364 838.940002 815.910278
/muse/eeg 840.584961 801.105408 840.584961 824.135132
/muse/eeg 838.940002 802.750427 838.940002 825.780151
/muse/eeg 837.294983 809.330322 837.294983 825.780151
/muse/eeg 840.584961 810.975281 838.940002 829.070068
/muse/eeg 840.584961 815.910278 835.650024 827.425110
/muse/eeg 840.584961 809.330322 834.005005 824.135132
/muse/eeg 840.584961 807.685364 832.360046 829.070068
/muse/eeg 837.294983 810.975281 832.360046 825.780151
/muse/eeg 832.360046 812.620300 834.005005 817.555237
/muse/eeg 840.584961 812.620300 834.005005 825.780151
/muse/drlref 1635483.875000 1641935.500000
/muse/eeg 838.940002 812.620300 837.294983 822.490173
/muse/elements/alpha_relative 0.164332 0.100141 0.181383 0.291790
/muse/elements/beta_relative 0.087966 0.039011 0.042848 0.107154
/muse/elements/delta_relative 0.489374 0.644805 0.566592 0.211944
/muse/elements/gamma_relative 0.043289 0.041603 0.017664 0.051933
/muse/elements/theta_relative 0.215038 0.174440 0.191513 0.337178
/muse/elements/low_freqs_absolute 1.317457 1.200331 1.317760 1.004057
/muse/elements/alpha_absolute 0.685353 0.287532 0.696628 0.729459
/muse/elements/beta_absolute 0.413946 -0.121899 0.069967 0.294397
/muse/elements/delta_absolute 1.159271 1.096346 1.191302 0.590610
/muse/elements/gamma_absolute 0.106009 -0.093955 -0.314876 -0.020168
/muse/elements/theta_absolute 0.802146 0.528564 0.720229 0.792247
/muse/eeg/quantization 1 1 1 1
/muse/eeg 842.229919 809.330322 837.294983 825.780151
/muse/eeg 838.940002 809.330322 832.360046 825.780151
/muse/eeg 837.294983 809.330322 830.715088 822.490173
/muse/eeg 837.294983 809.330322 834.005005 824.135132
/muse/eeg 834.005005 807.685364 835.650024 822.490173
/muse/eeg 829.070068 810.975281 835.650024 819.200195
/muse/eeg 830.715088 812.620300 832.360046 815.910278
/muse/eeg 832.360046 812.620300 830.715088 815.910278
/muse/eeg 835.650024 814.265259 832.360046 817.555237
/muse/eeg 842.229919 814.265259 830.715088 820.845215
/muse/eeg 837.294983 815.910278 834.005005 822.490173
/muse/eeg 829.070068 812.620300 838.940002 815.910278
/muse/eeg 817.555237 806.040344 840.584961 810.975281
/muse/eeg 817.555237 797.815491 843.874939 812.620300
/muse/eeg 817.555237 796.170471 845.519897 812.620300
/muse/eeg 820.845215 797.815491 847.164856 817.555237
/muse/eeg/quantization 1 1 1 1
/muse/eeg 814.265259 796.170471 850.454834 814.265259
/muse/eeg 817.555237 792.880554 850.454834 812.620300
/muse/eeg 820.845215 794.525513 848.809875 820.845215
/muse/eeg 824.135132 797.815491 848.809875 819.200195
/muse/eeg 827.425110 801.105408 848.809875 819.200195
/muse/eeg 822.490173 802.750427 848.809875 819.200195
/muse/elements/alpha_relative 0.147523 0.104294 0.168002 0.253192
/muse/elements/beta_relative 0.090487 0.038029 0.043797 0.122203
/muse/elements/delta_relative 0.500425 0.651905 0.580034 0.216107
/muse/elements/gamma_relative 0.046678 0.039640 0.016004 0.062716
/muse/elements/theta_relative 0.214886 0.166132 0.192164 0.345783
/muse/elements/low_freqs_absolute 1.284659 1.213823 1.321241 0.943337
/muse/elements/alpha_absolute 0.599023 0.319309 0.658826 0.597136
/muse/elements/beta_absolute 0.386751 -0.118831 0.074954 0.280767
/muse/elements/delta_absolute 1.129503 1.115235 1.196966 0.528355
/muse/elements/gamma_absolute 0.099279 -0.100820 -0.362266 -0.008935
/muse/elements/theta_absolute 0.762372 0.521503 0.717185 0.732490
/muse/eeg 829.070068 799.460449 842.229919 822.490173
/muse/eeg 827.425110 799.460449 845.519897 819.200195
/muse/eeg 832.360046 799.460449 848.809875 827.425110
/muse/eeg 830.715088 802.750427 845.519897 825.780151
/muse/eeg 835.650024 804.395386 845.519897 829.070068
/muse/eeg 830.715088 807.685364 843.874939 825.780151
/muse/eeg 832.360046 809.330322 842.229919 820.845215
/muse/eeg 837.294983 806.040344 840.584961 824.135132
/muse/eeg 837.294983 806.040344 838.940002 820.845215
/muse/drlref 1635483.875000 1641935.500000
/muse/eeg 837.294983 804.395386 838.940002 829.070068
/muse/eeg/quantization 1 1 1 1
/muse/eeg 830.715088 806.040344 840.584961 820.845215
/muse/eeg 838.940002 807.685364 840.584961 822.490173
/muse/eeg 837.294983 807.685364 840.584961 825.780151
/muse/eeg 842.229919 804.395386 840.584961 825.780151
/muse/eeg 838.940002 807.685364 838.940002 822.490173
/muse/eeg 834.005005 809.330322 837.294983 820.845215
/muse/eeg 835.650024 804.395386 837.294983 819.200195
/muse/eeg 830.715088 804.395386 835.650024 817.555237
/muse/eeg 834.005005 806.040344 835.650024 824.135132
/muse/eeg 835.650024 809.330322 837.294983 822.490173
/muse/eeg 837.294983 812.620300 835.650024 819.200195
/muse/eeg 837.294983 812.620300 837.294983 824.135132
/muse/elements/alpha_relative 0.123810 0.108632 0.160967 0.232928
/muse/elements/beta_relative 0.092685 0.036249 0.043648 0.134859
/muse/elements/delta_relative 0.519817 0.661904 0.591813 0.207836
/muse/elements/gamma_relative 0.048994 0.036360 0.014552 0.072271
/muse/elements/theta_relative 0.214693 0.156856 0.189019 0.352107
/muse/elements/low_freqs_absolute 1.261241 1.235363 1.332552 0.892282
/muse/elements/alpha_absolute 0.487999 0.358162 0.646733 0.511360
/muse/elements/beta_absolute 0.362254 -0.118499 0.079964 0.274018
/muse/elements/delta_absolute 1.111093 1.143002 1.212179 0.461858
/muse/elements/gamma_absolute 0.085390 -0.117174 -0.397083 0.003100
/muse/elements/theta_absolute 0.727062 0.517706 0.716501 0.690813
/muse/eeg 842.229919 809.330322 837.294983 832.360046
/muse/eeg 834.005005 810.975281 837.294983 824.135132
/muse/eeg 837.294983 810.975281 838.940002 825.780151
/muse/drlref 1635483.875000 1638709.625000
/muse/eeg 837.294983 807.685364 838.940002 827.425110
/muse/eeg/quantization 1 1 1 1
/muse/eeg 840.584961 810.975281 838.940002 824.135132
/muse/eeg 843.874939 810.975281 837.294983 835.650024
/muse/eeg 840.584961 810.975281 838.940002 834.005005
/muse/eeg 838.940002 810.975281 838.940002 827.425110
/muse/eeg 832.360046 810.975281 838.940002 824.135132
/muse/eeg 837.294983 809.330322 837.294983 827.425110
/muse/eeg 825.780151 809.330322 838.940002 814.265259
/muse/eeg 834.005005 807.685364 837.294983 824.135132
/muse/eeg 834.005005 810.975281 834.005005 819.200195
/muse/eeg 837.294983 810.975281 834.005005 820.845215
/muse/eeg 837.294983 810.975281 832.360046 815.910278
/muse/eeg 830.715088 814.265259 832.360046 809.330322
/muse/eeg 835.650024 809.330322 834.005005 809.330322
/muse/eeg 838.940002 807.685364 835.650024 812.620300
/muse/eeg 855.389771 801.105408 838.940002 835.650024
/muse/eeg 853.744812 807.685364 838.940002 830.715088
/muse/eeg/quantization 1 1 1 1
/muse/eeg 834.005005 817.555237 829.070068 810.975281
/muse/eeg 829.070068 817.555237 825.780151 815.910278
/muse/elements/alpha_relative 0.121443 0.107243 0.156606 0.231843
/muse/elements/beta_relative 0.091307 0.034704 0.043136 0.141576
/muse/elements/delta_relative 0.529811 0.675701 0.602988 0.194048
/muse/elements/gamma_relative 0.048240 0.032876 0.013510 0.078165
/muse/elements/theta_relative 0.209198 0.149475 0.183758 0.354368
/muse/elements/low_freqs_absolute 1.252953 1.259421 1.347758 0.860858
/muse/elements/alpha_absolute 0.468675 0.373243 0.646733 0.486943
/muse/elements/beta_absolute 0.344808 -0.116741 0.086767 0.272738
/muse/elements/delta_absolute 1.108424 1.172628 1.232232 0.409657
/muse/elements/gamma_absolute 0.067713 -0.140243 -0.417416 0.014764
/muse/elements/theta_absolute 0.704861 0.517443 0.716170 0.671203
/muse/eeg 825.780151 815.910278 825.780151 815.910278
/muse/eeg 824.135132 815.910278 825.780151 810.975281
/muse/eeg 827.425110 820.845215 820.845215 809.330322
/muse/eeg 835.650024 827.425110 814.265259 810.975281
/muse/eeg 835.650024 829.070068 812.620300 807.685364
/muse/eeg 843.874939 829.070068 812.620300 819.200195
/muse/eeg 842.229919 834.005005 807.685364 807.685364
/muse/eeg 852.099792 837.294983 806.040344 812.620300
/muse/eeg 853.744812 838.940002 806.040344 817.555237
/muse/eeg 857.034729 834.005005 804.395386 822.490173
/muse/eeg 858.679749 832.360046 806.040344 824.135132
/muse/eeg 847.164856 834.005005 806.040344 812.620300
/muse/eeg 855.389771 825.780151 807.685364 825.780151
/muse/drlref 1635483.875000 1641935.500000
/muse/eeg 861.969727 824.135132 814.265259 829.070068
/muse/eeg/quantization 1 1 1 1
/muse/eeg 858.679749 825.780151 812.620300 827.425110
/muse/eeg 853.744812 830.715088 809.330322 819.200195
/muse/eeg 860.324707 830.715088 812.620300 822.490173
/muse/eeg 857.034729 827.425110 815.910278 825.780151
/muse/eeg 852.099792 825.780151 817.555237 822.490173
/muse/eeg 853.744812 827.425110 814.265259 820.845215
/muse/eeg 852.099792 829.070068 815.910278 814.265259
/muse/eeg 861.969727 824.135132 817.555237 829.070068
/muse/elements/alpha_relative 0.123604 0.105182 0.153480 0.229299
/muse/elements/beta_relative 0.088912 0.033887 0.042713 0.145727
/muse/elements/delta_relative 0.536792 0.686626 0.612772 0.184981
/muse/elements/gamma_relative 0.046098 0.029738 0.012740 0.081982
/muse/elements/theta_relative 0.204594 0.144565 0.178295 0.358011
/muse/elements/low_freqs_absolute 1.257366 1.280847 1.362673 0.845439
/muse/elements/alpha_absolute 0.479354 0.383088 0.650513 0.471048
/muse/elements/beta_absolute 0.336282 -0.108816 0.095015 0.274185
/muse/elements/delta_absolute 1.117128 1.197866 1.251758 0.377773
/muse/elements/gamma_absolute 0.051008 -0.165540 -0.430383 0.024366
/muse/elements/theta_absolute 0.698215 0.521210 0.715599 0.664542
/muse/eeg 853.744812 825.780151 819.200195 820.845215
/muse/eeg 857.034729 825.780151 820.845215 827.425110
/muse/eeg 850.454834 829.070068 822.490173 822.490173
/muse/eeg 850.454834 829.070068 819.200195 822.490173
/muse/eeg 853.744812 822.490173 820.845215 830.715088
/muse/eeg 852.099792 820.845215 822.490173 825.780151
/muse/eeg 852.099792 819.200195 824.135132 822.490173
/muse/drlref 1635483.875000 1641935.500000
/muse/eeg 852.099792 824.135132 825.780151 824.135132
/muse/eeg/quantization 1 1 1 1
/muse/eeg 853.744812 822.490173 827.425110 827.425110
/muse/eeg 852.099792 820.845215 824.135132 825.780151
/muse/eeg 852.099792 817.555237 824.135132 829.070068
/muse/eeg 850.454834 817.555237 825.780151 827.425110
/muse/eeg 848.809875 822.490173 827.425110 822.490173
/muse/eeg 850.454834 822.490173 827.425110 824.135132
/muse/eeg 852.099792 819.200195 824.135132 832.360046
/muse/eeg 847.164856 820.845215 825.780151 825.780151
/muse/eeg 847.164856 817.555237 825.780151 824.135132
/muse/eeg 845.519897 815.910278 825.780151 822.490173
/muse/eeg 845.519897 814.265259 827.425110 822.490173
/muse/eeg 843.874939 809.330322 832.360046 829.070068
/muse/eeg 830.715088 812.620300 832.360046 817.555237
/muse/eeg 837.294983 817.555237 832.360046 820.845215
/muse/elements/alpha_relative 0.127246 0.101385 0.150011 0.224173
/muse/elements/beta_relative 0.087242 0.034127 0.042663 0.149237
/muse/elements/delta_relative 0.537123 0.693752 0.620590 0.178941
/muse/elements/gamma_relative 0.043767 0.027379 0.012098 0.084764
/muse/elements/theta_relative 0.204623 0.143356 0.174638 0.362885
/muse/elements/low_freqs_absolute 1.267265 1.296991 1.374880 0.835014
/muse/elements/alpha_absolute 0.501654 0.380184 0.650513 0.451739
/muse/elements/beta_absolute 0.337734 -0.092690 0.104436 0.275031
/muse/elements/delta_absolute 1.127084 1.215414 1.267193 0.353864
/muse/elements/gamma_absolute 0.038157 -0.188367 -0.442912 0.029367
/muse/elements/theta_absolute 0.707964 0.530627 0.716528 0.660924
/muse/eeg 842.229919 817.555237 830.715088 822.490173
/muse/eeg 847.164856 817.555237 830.715088 827.425110
/muse/eeg/quantization 1 1 1 1
/muse/eeg 842.229919 819.200195 832.360046 827.425110
/muse/eeg 842.229919 820.845215 834.005005 822.490173
/muse/eeg 842.229919 817.555237 834.005005 825.780151
/muse/eeg 845.519897 817.555237 830.715088 825.780151
/muse/eeg 842.229919 817.555237 830.715088 825.780151
/muse/eeg 837.294983 817.555237 829.070068 820.845215
/muse/eeg 845.519897 817.555237 830.715088 825.780151
/muse/eeg 843.874939 817.555237 827.425110 829.070068
/muse/eeg 847.164856 814.265259 829.070068 830.715088
/muse/eeg 852.099792 815.910278 827.425110 834.005005
/muse/eeg 847.164856 812.620300 835.650024 834.005005
/muse/eeg 835.650024 809.330322 843.874939 819.200195
/muse/eeg 845.519897 807.685364 842.229919 830.715088
/muse/eeg 835.650024 810.975281 843.874939 827.425110
/muse/eeg 837.294983 812.620300 838.940002 827.425110
/muse/eeg 840.584961 809.330322 840.584961 829.070068
/muse/drlref 1635483.875000 1641935.500000
/muse/eeg 832.360046 809.330322 840.584961 825.780151
/muse/eeg/quantization 1 1 1 1
/muse/eeg 832.360046 806.040344 840.584961 829.070068
/muse/eeg 832.360046 807.685364 838.940002 829.070068
/muse/eeg 832.360046 809.330322 838.940002 830.715088
/muse/elements/alpha_relative 0.129057 0.103607 0.147249 0.227873
/muse/elements/beta_relative 0.087366 0.034871 0.042648 0.150920
/muse/elements/delta_relative 0.532791 0.692354 0.626614 0.171016
/muse/elements/gamma_relative 0.042086 0.025547 0.011447 0.086011
/muse/elements/theta_relative 0.208700 0.143621 0.172043 0.364180
/muse/elements/low_freqs_absolute 1.276371 1.308062 1.384822 0.822561
/muse/elements/alpha_absolute 0.517045 0.401255 0.650513 0.451739
/muse/elements/beta_absolute 0.347605 -0.071669 0.112355 0.272794
/muse/elements/delta_absolute 1.132822 1.226196 1.279462 0.327085
/muse/elements/gamma_absolute 0.030404 -0.206791 -0.458864 0.028600
/muse/elements/theta_absolute 0.725788 0.543087 0.718098 0.655364
/muse/eeg 835.650024 810.975281 838.940002 825.780151
/muse/eeg 838.940002 809.330322 835.650024 830.715088
/muse/eeg 832.360046 809.330322 835.650024 829.070068
/muse/eeg 829.070068 809.330322 838.940002 827.425110
/muse/eeg 824.135132 807.685364 835.650024 829.070068
/muse/eeg 820.845215 810.975281 834.005005 824.135132
/muse/eeg 827.425110 810.975281 835.650024 824.135132
/muse/eeg 827.425110 814.265259 835.650024 820.845215
/muse/eeg 832.360046 814.265259 838.940002 824.135132
/muse/eeg 832.360046 812.620300 837.294983 822.490173
/muse/eeg 838.940002 802.750427 837.294983 834.005005
/muse/eeg 843.874939 804.395386 838.940002 840.584961
/muse/drlref 1635483.875000 1641935.500000
/muse/eeg 843.874939 812.620300 837.294983 835.650024
/muse/eeg/quantization 1 1 1 1
/muse/eeg 832.360046 820.845215 829.070068 817.555237
/muse/eeg 837.294983 822.490173 825.780151 822.490173
/muse/eeg 837.294983 819.200195 824.135132 827.425110
/muse/eeg 837.294983 819.200195 824.135132 824.135132
/muse/eeg 842.229919 817.555237 827.425110 829.070068
/muse/eeg 835.650024 819.200195 825.780151 815.910278
/muse/eeg 848.809875 814.265259 829.070068 830.715088
/muse/eeg 843.874939 815.910278 829.070068 827.425110
/muse/eeg 848.809875 815.910278 827.425110 830.715088
/muse/elements/alpha_relative 0.129906 0.105797 0.145504 0.233740
/muse/elements/beta_relative 0.089368 0.036209 0.042547 0.152196
/muse/elements/delta_relative 0.525315 0.688735 0.632025 0.162679
/muse/elements/gamma_relative 0.040975 0.024234 0.010780 0.086806
/muse/elements/theta_relative 0.214435 0.145026 0.169144 0.364579
/muse/elements/low_freqs_absolute 1.282225 1.313218 1.391361 0.805029
/muse/elements/alpha_absolute 0.526770 0.416648 0.650513 0.451739
/muse/elements/beta_absolute 0.364324 -0.049006 0.116504 0.265410
/muse/elements/delta_absolute 1.133559 1.230228 1.288371 0.294338
/muse/elements/gamma_absolute 0.025658 -0.223403 -0.479737 0.021557
/muse/elements/theta_absolute 0.744436 0.553621 0.715894 0.644797
/muse/eeg 847.164856 814.265259 827.425110 829.070068
/muse/eeg 845.519897 812.620300 824.135132 829.070068
/muse/eeg 845.519897 810.975281 830.715088 834.005005
/muse/eeg 840.584961 814.265259 832.360046 829.070068
/muse/eeg 847.164856 812.620300 829.070068 827.425110
/muse/eeg 847.164856 812.620300 832.360046 830.715088
/muse/eeg 852.099792 807.685364 830.715088 837.294983
/muse/eeg/quantization 1 1 1 1
/muse/eeg 848.809875 810.975281 830.715088 835.650024
/muse/eeg 842.229919 812.620300 830.715088 830.715088
/muse/eeg 848.809875 814.265259 829.070068 825.780151
/muse/eeg 853.744812 814.265259 829.070068 829.070068
/muse/eeg 850.454834 815.910278 825.780151 830.715088
/muse/eeg 852.099792 815.910278 825.780151 832.360046
/muse/eeg 852.099792 817.555237 827.425110 834.005005
/muse/eeg 855.389771 814.265259 830.715088 840.584961
/muse/eeg 852.099792 810.975281 834.005005 837.294983
/muse/eeg 847.164856 814.265259 834.005005 834.005005
/muse/eeg 857.034729 815.910278 830.715088 842.229919
/muse/eeg 853.744812 815.910278 830.715088 834.005005
/muse/eeg 860.324707 814.265259 832.360046 840.584961
/muse/eeg 855.389771 812.620300 830.715088 838.940002
/muse/eeg 852.099792 814.265259 830.715088 832.360046
/muse/elements/alpha_relative 0.129549 0.108217 0.143913 0.242381
/muse/elements/beta_relative 0.092860 0.038171 0.042452 0.153228
/muse/elements/delta_relative 0.516672 0.684366 0.638812 0.155338
/muse/elements/gamma_relative 0.040390 0.023257 0.010233 0.087721
/muse/elements/theta_relative 0.220529 0.145990 0.164590 0.361332
/muse/elements/low_freqs_absolute 1.283990 1.310956 1.391752 0.780454
/muse/elements/alpha_absolute 0.528840 0.425986 0.644919 0.451739
/muse/elements/beta_absolute 0.384233 -0.026579 0.114716 0.252580
/muse/elements/delta_absolute 1.129619 1.226979 1.292192 0.258520
/muse/elements/gamma_absolute 0.022674 -0.241763 -0.503181 0.010345
/muse/elements/theta_absolute 0.759870 0.556016 0.703222 0.625147
/muse/drlref 1635483.875000 1641935.500000
/muse/eeg 857.034729 815.910278 834.005005 842.229919
/muse/eeg/quantization 1 1 1 1
/muse/eeg 852.099792 815.910278 834.005005 835.650024
/muse/eeg 855.389771 814.265259 835.650024 838.940002
/muse/eeg 847.164856 812.620300 829.070068 832.360046
/muse/eeg 845.519897 810.975281 827.425110 830.715088
/muse/eeg 845.519897 814.265259 827.425110 830.715088
/muse/eeg 842.229919 814.265259 827.425110 825.780151
/muse/eeg 843.874939 815.910278 829.070068 830.715088
/muse/eeg 843.874939 815.910278 829.070068 830.715088
/muse/eeg 845.519897 815.910278 827.425110 827.425110
/muse/eeg 845.519897 812.620300 827.425110 829.070068
/muse/eeg 840.584961 809.330322 832.360046 830.715088
/muse/eeg 840.584961 814.265259 837.294983 825.780151
/muse/eeg 845.519897 809.330322 835.650024 829.070068
/muse/eeg 842.229919 817.555237 834.005005 822.490173
/muse/eeg 845.519897 814.265259 832.360046 829.070068
/muse/drlref 1635483.875000 1641935.500000
/muse/eeg 837.294983 814.265259 832.360046 819.200195
/muse/eeg/quantization 1 1 1 1
/muse/eeg 838.940002 817.555237 835.650024 820.845215
/muse/eeg 837.294983 812.620300 830.715088 822.490173
/muse/eeg 837.294983 810.975281 824.135132 824.135132
/muse/eeg 838.940002 810.975281 832.360046 825.780151
/muse/eeg 835.650024 814.265259 832.360046 820.845215
/muse/elements/alpha_relative 0.126963 0.112298 0.136728 0.238596
/muse/elements/beta_relative 0.097531 0.040945 0.042991 0.158110
/muse/elements/delta_relative 0.509001 0.678104 0.650186 0.152941
/muse/elements/gamma_relative 0.040382 0.022631 0.010025 0.091125
/muse/elements/theta_relative 0.226123 0.146021 0.160069 0.359227
/muse/elements/low_freqs_absolute 1.279426 1.298484 1.382870 0.747226
/muse/elements/alpha_absolute 0.516744 0.432864 0.610107 0.415477
/muse/elements/beta_absolute 0.402210 -0.005307 0.107628 0.236773
/muse/elements/delta_absolute 1.119784 1.213787 1.287286 0.222337
/muse/elements/gamma_absolute 0.019249 -0.262806 -0.524659 -0.002550
/muse/elements/theta_absolute 0.767409 0.546907 0.678556 0.593182
/muse/eeg 835.650024 815.910278 835.650024 820.845215
/muse/eeg 840.584961 812.620300 835.650024 827.425110
/muse/eeg 840.584961 812.620300 830.715088 829.070068
/muse/eeg 832.360046 814.265259 825.780151 815.910278
/muse/eeg 838.940002 812.620300 832.360046 820.845215
/muse/eeg 838.940002 809.330322 834.005005 827.425110
/muse/eeg 834.005005 807.685364 832.360046 819.200195
/muse/eeg 835.650024 806.040344 838.940002 820.845215
/muse/eeg 829.070068 814.265259 834.005005 814.265259
/muse/eeg 834.005005 815.910278 835.650024 819.200195
/muse/eeg 834.005005 814.265259 834.005005 822.490173
/muse/eeg/quantization 1 1 1 1
/muse/eeg 838.940002 815.910278 832.360046 820.845215
/muse/eeg 852.099792 822.490173 824.135132 832.360046
/muse/eeg 852.099792 817.555237 830.715088 834.005005
/muse/eeg 834.005005 807.685364 845.519897 824.135132
/muse/eeg 832.360046 807.685364 842.229919 822.490173
/muse/eeg 822.490173 801.105408 852.099792 814.265259
/muse/eeg 822.490173 806.040344 853.744812 812.620300
/muse/eeg 830.715088 799.460449 855.389771 824.135132
/muse/eeg 824.135132 796.170471 858.679749 819.200195
/muse/eeg 829.070068 794.525513 857.034729 822.490173
/muse/eeg 829.070068 797.815491 852.099792 819.200195
/muse/elements/alpha_relative 0.124265 0.118629 0.133522 0.203124
/muse/elements/beta_relative 0.102394 0.044495 0.043850 0.171895
/muse/elements/delta_relative 0.502557 0.669577 0.657044 0.158084
/muse/elements/gamma_relative 0.040980 0.022461 0.010143 0.100017
/muse/elements/theta_relative 0.229804 0.144837 0.155441 0.366879
/muse/elements/low_freqs_absolute 1.266167 1.275366 1.364834 0.705918
/muse/elements/alpha_absolute 0.495791 0.438713 0.580570 0.293550
/muse/elements/beta_absolute 0.411716 0.012835 0.096991 0.221053
/muse/elements/delta_absolute 1.102627 1.190321 1.272613 0.184677
/muse/elements/gamma_absolute 0.014014 -0.284043 -0.538801 -0.014138
/muse/elements/theta_absolute 0.762800 0.525401 0.646584 0.550312
/muse/eeg 834.005005 797.815491 850.454834 822.490173
/muse/eeg 830.715088 796.170471 850.454834 825.780151
/muse/eeg 830.715088 794.525513 847.164856 830.715088
/muse/eeg 825.780151 794.525513 845.519897 837.294983
/muse/drlref 1635483.875000 1641935.500000
/muse/eeg 824.135132 796.170471 847.164856 834.005005
/muse/eeg/quantization 1 1 1 1
/muse/eeg 822.490173 802.750427 848.809875 824.135132
/muse/eeg 830.715088 807.685364 848.809875 832.360046
/muse/eeg 837.294983 804.395386 845.519897 834.005005
/muse/eeg 834.005005 804.395386 848.809875 832.360046
/muse/eeg 834.005005 804.395386 848.809875 835.650024
/muse/eeg 834.005005 804.395386 847.164856 824.135132
/muse/eeg 842.229919 809.330322 843.874939 832.360046
/muse/eeg 840.584961 806.040344 838.940002 832.360046
/muse/eeg 842.229919 806.040344 837.294983 829.070068
/muse/eeg 840.584961 809.330322 837.294983 827.425110
/muse/eeg 847.164856 807.685364 840.584961 835.650024
/muse/eeg 845.519897 809.330322 840.584961 832.360046
/muse/eeg 838.940002 809.330322 840.584961 822.490173
/muse/eeg 842.229919 807.685364 838.940002 829.070068
/muse/eeg 840.584961 807.685364 835.650024 829.070068
/muse/drlref 1635483.875000 1641935.500000
/muse/eeg 848.809875 804.395386 837.294983 832.360046
/muse/eeg/quantization 1 1 1 1
/muse/eeg 843.874939 809.330322 838.940002 830.715088
/muse/elements/alpha_relative 0.116772 0.120183 0.121291 0.158702
/muse/elements/beta_relative 0.107043 0.048856 0.045642 0.189566
/muse/elements/delta_relative 0.502896 0.664563 0.667804 0.166337
/muse/elements/gamma_relative 0.042345 0.022877 0.010663 0.111672
/muse/elements/theta_relative 0.230944 0.143521 0.154600 0.373723
/muse/elements/low_freqs_absolute 1.245893 1.245013 1.342430 0.661958
/muse/elements/alpha_absolute 0.447630 0.417399 0.511172 0.130100
/muse/elements/beta_absolute 0.409849 0.026478 0.086713 0.207276
/muse/elements/delta_absolute 1.081770 1.160092 1.251994 0.150504
/muse/elements/gamma_absolute 0.007089 -0.303054 -0.544755 -0.022539
/muse/elements/theta_absolute 0.743799 0.494471 0.616554 0.502066
/muse/eeg 840.584961 810.975281 840.584961 830.715088
/muse/eeg 842.229919 809.330322 840.584961 837.294983
/muse/eeg 840.584961 809.330322 840.584961 835.650024
/muse/eeg 843.874939 807.685364 835.650024 837.294983
/muse/eeg 838.940002 812.620300 837.294983 830.715088
/muse/eeg 840.584961 814.265259 837.294983 829.070068
/muse/eeg 845.519897 809.330322 837.294983 837.294983
/muse/eeg 845.519897 806.040344 840.584961 834.005005
/muse/eeg 840.584961 809.330322 838.940002 825.780151
/muse/eeg 837.294983 809.330322 832.360046 822.490173
/muse/eeg 834.005005 810.975281 832.360046 820.845215
/muse/eeg 838.940002 810.975281 832.360046 820.845215
/muse/eeg 840.584961 809.330322 832.360046 825.780151
/muse/eeg 837.294983 809.330322 834.005005 819.200195
/muse/eeg 842.229919 812.620300 830.715088 824.135132
/muse/eeg 842.229919 815.910278 834.005005 825.780151
/muse/eeg/quantization 1 1 1 1
/muse/eeg 848.809875 814.265259 837.294983 834.005005
/muse/eeg 853.744812 815.910278 832.360046 837.294983
/muse/eeg 837.294983 817.555237 827.425110 812.620300
/muse/eeg 834.005005 815.910278 825.780151 810.975281
/muse/eeg 840.584961 817.555237 827.425110 817.555237
/muse/eeg 835.650024 817.555237 827.425110 814.265259
/muse/elements/alpha_relative 0.111122 0.123623 0.114440 0.145396
/muse/elements/beta_relative 0.109990 0.053396 0.047656 0.199607
/muse/elements/delta_relative 0.508471 0.658284 0.671136 0.171130
/muse/elements/gamma_relative 0.043821 0.023477 0.011328 0.119612
/muse/elements/theta_relative 0.226595 0.141219 0.155440 0.364254
/muse/elements/low_freqs_absolute 1.223725 1.212946 1.321451 0.624194
/muse/elements/alpha_absolute 0.403200 0.402225 0.462745 0.058082
/muse/elements/beta_absolute 0.398754 0.037637 0.082282 0.195705
/muse/elements/delta_absolute 1.063665 1.128540 1.230979 0.128853
/muse/elements/gamma_absolute -0.000915 -0.319230 -0.541671 -0.026695
/muse/elements/theta_absolute 0.712649 0.460020 0.595731 0.456933
/muse/eeg 837.294983 817.555237 829.070068 814.265259
/muse/eeg 837.294983 815.910278 825.780151 812.620300
/muse/eeg 835.650024 815.910278 824.135132 814.265259
/muse/eeg 838.940002 812.620300 829.070068 820.845215
/muse/eeg 835.650024 814.265259 827.425110 819.200195
/muse/eeg 835.650024 815.910278 825.780151 812.620300
/muse/eeg 835.650024 814.265259 825.780151 810.975281
/muse/eeg 838.940002 809.330322 824.135132 819.200195
/muse/eeg 838.940002 809.330322 827.425110 820.845215
/muse/drlref 1635483.875000 1641935.500000
/muse/eeg 840.584961 810.975281 827.425110 824.135132
/muse/eeg/quantization 1 1 1 1
/muse/eeg 832.360046 815.910278 827.425110 814.265259
/muse/eeg 838.940002 815.910278 829.070068 824.135132
/muse/eeg 837.294983 810.975281 827.425110 825.780151
/muse/eeg 834.005005 812.620300 827.425110 817.555237
/muse/eeg 840.584961 814.265259 829.070068 822.490173
/muse/eeg 842.229919 814.265259 829.070068 825.780151
/muse/eeg 848.809875 810.975281 830.715088 835.650024
/muse/eeg 842.229919 812.620300 830.715088 830.715088
/muse/eeg 840.584961 814.265259 829.070068 827.425110
/muse/eeg 838.940002 817.555237 827.425110 825.780151
/muse/eeg 842.229919 812.620300 830.715088 830.715088
/muse/eeg 837.294983 810.975281 825.780151 829.070068
/muse/elements/alpha_relative 0.113303 0.130358 0.104444 0.148861
/muse/elements/beta_relative 0.110438 0.057502 0.050308 0.202314
/muse/elements/delta_relative 0.515976 0.649641 0.674397 0.177908
/muse/elements/gamma_relative 0.044522 0.023872 0.012102 0.123522
/muse/elements/theta_relative 0.215762 0.138627 0.158748 0.347395
/muse/elements/low_freqs_absolute 1.206281 1.184923 1.306674 0.600103
/muse/elements/alpha_absolute 0.396166 0.403385 0.404837 0.052475
/muse/elements/beta_absolute 0.385042 0.047936 0.087594 0.185719
/muse/elements/delta_absolute 1.054554 1.100923 1.214869 0.129888
/muse/elements/gamma_absolute -0.009498 -0.333863 -0.531179 -0.028562
/muse/elements/theta_absolute 0.675900 0.430097 0.586662 0.420516
/muse/eeg 832.360046 812.620300 824.135132 822.490173
/muse/eeg 835.650024 810.975281 829.070068 827.425110
/muse/eeg 840.584961 814.265259 830.715088 822.490173
/muse/drlref 1635483.875000 1641935.500000
/muse/eeg 843.874939 812.620300 832.360046 829.070068
/muse/eeg/quantization 1 1 1 1
/muse/eeg 838.940002 814.265259 832.360046 820.845215
/muse/eeg 835.650024 817.555237 832.360046 820.845215
/muse/eeg 832.360046 812.620300 834.005005 817.555237
/muse/eeg 834.005005 812.620300 832.360046 820.845215
/muse/eeg 829.070068 812.620300 827.425110 815.910278
/muse/eeg 827.425110 815.910278 825.780151 810.975281
/muse/eeg 830.715088 814.265259 830.715088 815.910278
/muse/eeg 835.650024 812.620300 834.005005 820.845215
/muse/eeg 834.005005 812.620300 834.005005 822.490173
/muse/eeg 830.715088 815.910278 830.715088 817.555237
/muse/eeg 830.715088 812.620300 832.360046 815.910278
/muse/eeg 829.070068 809.330322 832.360046 814.265259
/muse/eeg 832.360046 804.395386 832.360046 817.555237
/muse/eeg 832.360046 810.975281 832.360046 817.555237
/muse/eeg 834.005005 814.265259 834.005005 819.200195
/muse/eeg 842.229919 807.685364 837.294983 832.360046
/muse/eeg/quantization 1 1 1 1
/muse/eeg 843.874939 812.620300 840.584961 835.650024
/muse/eeg 840.584961 812.620300 834.005005 830.715088
/muse/elements/alpha_relative 0.109481 0.136760 0.101150 0.148742
/muse/elements/beta_relative 0.111013 0.061272 0.053122 0.202730
/muse/elements/delta_relative 0.527789 0.639230 0.671143 0.192349
/muse/elements/gamma_relative 0.044930 0.024098 0.012834 0.125724
/muse/elements/theta_relative 0.206788 0.138640 0.161751 0.330455
/muse/elements/low_freqs_absolute 1.195364 1.160122 1.295850 0.588591
/muse/elements/alpha_absolute 0.368664 0.405174 0.380226 0.042684
/muse/elements/beta_absolute 0.374700 0.056478 0.100537 0.177169
/muse/elements/delta_absolute 1.051787 1.074873 1.202075 0.154341
/muse/elements/gamma_absolute -0.018140 -0.348796 -0.516380 -0.030330
/muse/elements/theta_absolute 0.644852 0.411103 0.584108 0.389364
/muse/eeg 835.650024 815.910278 829.070068 819.200195
/muse/eeg 840.584961 820.845215 827.425110 822.490173
/muse/eeg 834.005005 820.845215 824.135132 815.910278
/muse/eeg 843.874939 820.845215 824.135132 827.425110
/muse/eeg 838.940002 827.425110 822.490173 819.200195
/muse/eeg 838.940002 830.715088 815.910278 814.265259
/muse/eeg 843.874939 825.780151 817.555237 815.910278
/muse/eeg 842.229919 827.425110 817.555237 814.265259
/muse/eeg 847.164856 825.780151 819.200195 820.845215
/muse/eeg 842.229919 825.780151 822.490173 817.555237
/muse/eeg 847.164856 825.780151 824.135132 822.490173
/muse/eeg 845.519897 825.780151 824.135132 824.135132
/muse/eeg 848.809875 827.425110 824.135132 827.425110
/muse/drlref 1635483.875000 1645161.250000
/muse/eeg 850.454834 825.780151 824.135132 825.780151
/muse/eeg/quantization 1 1 1 1
/muse/eeg 847.164856 824.135132 824.135132 822.490173
/muse/eeg 843.874939 824.135132 824.135132 820.845215
/muse/eeg 847.164856 820.845215 827.425110 825.780151
/muse/eeg 855.389771 819.200195 827.425110 827.425110
/muse/eeg 848.809875 824.135132 824.135132 825.780151
/muse/eeg 848.809875 822.490173 819.200195 824.135132
/muse/eeg 847.164856 822.490173 820.845215 822.490173
/muse/eeg 845.519897 820.845215 822.490173 830.715088
/muse/elements/alpha_relative 0.108066 0.143873 0.097181 0.153918
/muse/elements/beta_relative 0.112327 0.064871 0.056752 0.200870
/muse/elements/delta_relative 0.532318 0.624839 0.667931 0.211910
/muse/elements/gamma_relative 0.044891 0.024494 0.013700 0.124794
/muse/elements/theta_relative 0.202398 0.141924 0.164436 0.308507
/muse/elements/low_freqs_absolute 1.186346 1.131856 1.281778 0.584965
/muse/elements/alpha_absolute 0.353916 0.405174 0.349046 0.055903
/muse/elements/beta_absolute 0.370709 0.059242 0.115445 0.171528
/muse/elements/delta_absolute 1.046398 1.042963 1.186195 0.194764
/muse/elements/gamma_absolute -0.027612 -0.363753 -0.501801 -0.035192
/muse/elements/theta_absolute 0.626434 0.399252 0.577461 0.357879
/muse/eeg 845.519897 819.200195 824.135132 827.425110
/muse/eeg 845.519897 822.490173 824.135132 830.715088
/muse/eeg 842.229919 817.555237 822.490173 825.780151
/muse/eeg 845.519897 819.200195 824.135132 824.135132
/muse/eeg 847.164856 815.910278 825.780151 827.425110
/muse/eeg 842.229919 819.200195 827.425110 822.490173
/muse/eeg 847.164856 815.910278 829.070068 829.070068
/muse/drlref 1635483.875000 1641935.500000
/muse/eeg 847.164856 814.265259 830.715088 824.135132
/muse/eeg/quantization 1 1 1 1
/muse/eeg 848.809875 810.975281 829.070068 829.070068
/muse/eeg 845.519897 812.620300 829.070068 825.780151
/muse/eeg 843.874939 814.265259 829.070068 827.425110
/muse/eeg 842.229919 812.620300 829.070068 825.780151
/muse/eeg 840.584961 810.975281 830.715088 825.780151
/muse/eeg 843.874939 812.620300 829.070068 829.070068
/muse/eeg 838.940002 814.265259 827.425110 825.780151
/muse/eeg 840.584961 815.910278 829.070068 827.425110
/muse/eeg 842.229919 820.845215 832.360046 822.490173
/muse/eeg 852.099792 817.555237 830.715088 834.005005
/muse/eeg 840.584961 820.845215 827.425110 820.845215
/muse/eeg 842.229919 815.910278 827.425110 819.200195
/muse/eeg 840.584961 815.910278 829.070068 822.490173
/muse/eeg 840.584961 814.265259 830.715088 819.200195
/muse/elements/alpha_relative 0.109712 0.151228 0.094501 0.160884
/muse/elements/beta_relative 0.115543 0.068716 0.061111 0.199118
/muse/elements/delta_relative 0.525819 0.605382 0.663005 0.232745
/muse/elements/gamma_relative 0.044971 0.025541 0.014726 0.121484
/muse/elements/theta_relative 0.203956 0.149132 0.166657 0.285770
/muse/elements/low_freqs_absolute 1.171572 1.093377 1.258621 0.586149
/muse/elements/alpha_absolute 0.348639 0.395343 0.315157 0.077899
/muse/elements/beta_absolute 0.371126 0.052768 0.125836 0.170497
/muse/elements/delta_absolute 1.029219 0.997739 1.161237 0.238268
/muse/elements/gamma_absolute -0.038689 -0.377047 -0.492202 -0.044095
/muse/elements/theta_absolute 0.617919 0.389280 0.561543 0.327404
/muse/eeg 843.874939 814.265259 829.070068 820.845215
/muse/eeg 843.874939 817.555237 829.070068 820.845215
/muse/eeg/quantization 1 1 1 1
/muse/eeg 840.584961 815.910278 825.780151 817.555237
/muse/eeg 838.940002 819.200195 827.425110 812.620300
/muse/eeg 847.164856 814.265259 829.070068 824.135132
/muse/eeg 840.584961 817.555237 829.070068 822.490173
/muse/eeg 838.940002 814.265259 829.070068 820.845215
/muse/eeg 838.940002 810.975281 830.715088 825.780151
/muse/eeg 838.940002 812.620300 829.070068 825.780151
/muse/eeg 834.005005 810.975281 830.715088 824.135132
/muse/eeg 832.360046 814.265259 832.360046 825.780151
/muse/eeg 832.360046 812.620300 832.360046 819.200195
/muse/eeg 834.005005 812.620300 830.715088 819.200195
/muse/eeg 842.229919 807.685364 829.070068 827.425110
/muse/eeg 830.715088 812.620300 832.360046 820.845215
/muse/eeg 834.005005 810.975281 830.715088 825.780151
/muse/eeg 837.294983 809.330322 832.360046 825.780151
/muse/drlref 1635483.875000 1641935.500000
/muse/eeg 840.584961 810.975281 830.715088 829.070068
/muse/eeg/quantization 1 1 1 1
/muse/eeg 835.650024 812.620300 829.070068 822.490173
/muse/eeg 838.940002 814.265259 834.005005 825.780151
/muse/eeg 838.940002 812.620300 830.715088 825.780151
/muse/eeg 840.584961 814.265259 830.715088 825.780151
/muse/elements/alpha_relative 0.114349 0.154925 0.089276 0.172288
/muse/elements/beta_relative 0.120653 0.073468 0.066480 0.197085
/muse/elements/delta_relative 0.511025 0.584250 0.658911 0.249011
/muse/elements/gamma_relative 0.045325 0.027580 0.016006 0.115801
/muse/elements/theta_relative 0.208647 0.159777 0.169327 0.265814
/muse/elements/low_freqs_absolute 1.147542 1.043693 1.225458 0.590502
/muse/elements/alpha_absolute 0.348639 0.362227 0.258038 0.115098
/muse/elements/beta_absolute 0.371947 0.038202 0.129994 0.173495
/muse/elements/delta_absolute 0.998849 0.938703 1.126130 0.275060
/muse/elements/gamma_absolute -0.053257 -0.387300 -0.488414 -0.057445
/muse/elements/theta_absolute 0.609820 0.375619 0.536029 0.303420
/muse/eeg 843.874939 814.265259 829.070068 827.425110
/muse/eeg 842.229919 819.200195 830.715088 820.845215
/muse/eeg 845.519897 817.555237 832.360046 825.780151
/muse/eeg 848.809875 814.265259 829.070068 829.070068
/muse/eeg 845.519897 812.620300 829.070068 830.715088
/muse/eeg 837.294983 814.265259 830.715088 825.780151
/muse/eeg 837.294983 817.555237 830.715088 817.555237
/muse/eeg 842.229919 815.910278 830.715088 824.135132
/muse/eeg 843.874939 810.975281 832.360046 822.490173
/muse/eeg 845.519897 809.330322 830.715088 824.135132
/muse/eeg 843.874939 814.265259 830.715088 819.200195
/muse/eeg 845.519897 812.620300 830.715088 819.200195
/muse/drlref 1635483.875000 1641935.500000
/muse/eeg 845.519897 815.910278 829.070068 817.555237
/muse/eeg/quantization 1 1 1 1
/muse/eeg 847.164856 812.620300 829.070068 820.845215
/muse/eeg 840.584961 810.975281 830.715088 824.135132
/muse/eeg 830.715088 812.620300 834.005005 824.135132
/muse/eeg 827.425110 814.265259 835.650024 825.780151
/muse/eeg 824.135132 814.265259 832.360046 822.490173
/muse/eeg 825.780151 814.265259 834.005005 822.490173
/muse/eeg 822.490173 817.555237 832.360046 812.620300
/muse/eeg 829.070068 817.555237 827.425110 815.910278
/muse/eeg 830.715088 817.555237 829.070068 812.620300
/muse/elements/alpha_relative 0.119781 0.168048 0.086764 0.182822
/muse/elements/beta_relative 0.126914 0.077217 0.071916 0.195549
/muse/elements/delta_relative 0.495740 0.554936 0.652219 0.259841
/muse/elements/gamma_relative 0.045938 0.029857 0.017369 0.109542
/muse/elements/theta_relative 0.211626 0.169943 0.171732 0.252246
/muse/elements/low_freqs_absolute 1.115195 0.989612 1.187214 0.596563
/muse/elements/alpha_absolute 0.343940 0.354780 0.209653 0.149247
/muse/elements/beta_absolute 0.369060 0.017059 0.128138 0.178474
/muse/elements/delta_absolute 0.960805 0.873589 1.085706 0.301927
/muse/elements/gamma_absolute -0.072277 -0.395614 -0.488914 -0.073198
/muse/elements/theta_absolute 0.591120 0.359650 0.506164 0.289044
/muse/eeg 829.070068 815.910278 827.425110 810.975281
/muse/eeg 832.360046 822.490173 824.135132 814.265259
/muse/eeg 824.135132 810.975281 837.294983 809.330322
/muse/eeg 812.620300 810.975281 838.940002 799.460449
/muse/eeg 815.910278 810.975281 840.584961 807.685364
/muse/eeg 801.105408 802.750427 850.454834 801.105408
/muse/eeg 797.815491 804.395386 848.809875 796.170471
/muse/eeg/quantization 1 1 1 1
/muse/eeg 796.170471 804.395386 852.099792 796.170471
/muse/eeg 779.720703 799.460449 857.034729 783.010620
/muse/eeg 789.590576 799.460449 855.389771 794.525513
/muse/eeg 796.170471 799.460449 855.389771 797.815491
/muse/eeg 791.235535 797.815491 855.389771 787.945557
/muse/eeg 792.880554 797.815491 850.454834 791.235535
/muse/eeg 796.170471 794.525513 848.809875 796.170471
/muse/eeg 791.235535 796.170471 850.454834 796.170471
/muse/eeg 796.170471 796.170471 850.454834 801.105408
/muse/eeg 802.750427 799.460449 845.519897 799.460449
/muse/eeg 806.040344 799.460449 843.874939 802.750427
/muse/eeg 815.910278 799.460449 845.519897 814.265259
/muse/eeg 812.620300 801.105408 845.519897 802.750427
/muse/eeg 820.845215 799.460449 845.519897 809.330322
/muse/eeg 822.490173 801.105408 840.584961 810.975281
/muse/elements/alpha_relative 0.126854 0.180107 0.085086 0.189232
/muse/elements/beta_relative 0.132341 0.079358 0.076937 0.193860
/muse/elements/delta_relative 0.485921 0.530104 0.645748 0.267144
/muse/elements/gamma_relative 0.046366 0.032025 0.018733 0.104027
/muse/elements/theta_relative 0.208518 0.178406 0.173496 0.245737
/muse/elements/low_freqs_absolute 1.080308 0.941153 1.150357 0.604465
/muse/elements/alpha_absolute 0.341979 0.346337 0.166804 0.171443
/muse/elements/beta_absolute 0.360370 -0.009601 0.123080 0.181936
/muse/elements/delta_absolute 0.925239 0.815168 1.047007 0.321194
/muse/elements/gamma_absolute -0.095130 -0.403708 -0.490459 -0.088408
/muse/elements/theta_absolute 0.557817 0.342217 0.476232 0.284919
/muse/drlref 1635483.875000 1641935.500000
/muse/eeg 825.780151 796.170471 838.940002 815.910278
/muse/eeg/quantization 1 1 1 1
/muse/eeg 827.425110 797.815491 838.940002 820.845215
/muse/eeg 825.780151 801.105408 838.940002 819.200195
/muse/eeg 834.005005 797.815491 838.940002 820.845215
/muse/eeg 834.005005 796.170471 837.294983 815.910278
/muse/eeg 837.294983 796.170471 838.940002 825.780151
/muse/eeg 834.005005 802.750427 840.584961 824.135132
/muse/eeg 838.940002 804.395386 838.940002 827.425110
/muse/eeg 840.584961 802.750427 835.650024 834.005005
/muse/eeg 842.229919 804.395386 835.650024 830.715088
/muse/eeg 843.874939 806.040344 837.294983 829.070068
/muse/eeg 842.229919 810.975281 840.584961 832.360046
