/muse/eeg 829.070068 792.880554 797.815491 822.490173
Unknown message         
	 Source: 'osc.udp://127.0.0.1:55693/'         
	 Address: '/muse/eeg/quantization'         
	 Types: 'iiii '         
	 Payload: '[1, 1, 1, 1]'
/muse/eeg 845.519897 801.105408 825.780151 834.005005
/muse/eeg 855.389771 801.105408 835.650024 840.584961
/muse/eeg 842.229919 820.845215 850.454834 817.555237
/muse/eeg 852.099792 824.135132 857.034729 830.715088
/muse/eeg 842.229919 817.555237 834.005005 824.135132
/muse/eeg 824.135132 797.815491 825.780151 806.040344
/muse/eeg 819.200195 825.780151 825.780151 806.040344
/muse/eeg 824.135132 797.815491 807.685364 806.040344
/muse/eeg 840.584961 804.395386 812.620300 824.135132
/muse/eeg 855.389771 820.845215 819.200195 840.584961
/muse/eeg 840.584961 829.070068 847.164856 825.780151
/muse/eeg 838.940002 814.265259 852.099792 825.780151
/muse/eeg 830.715088 792.880554 834.005005 809.330322
/muse/eeg 825.780151 779.720703 830.715088 810.975281
/muse/eeg 814.265259 783.010620 819.200195 804.395386
/muse/acc 277.344177 855.470093 429.688171
/muse/acc 277.344177 859.376343 429.688171
/muse/acc 273.437927 863.282593 429.688171
/muse/drlref 1629032.250000 1641935.500000
/muse/acc 273.437927 863.282593 429.688171
/muse/eeg 817.555237 809.330322 838.940002 801.105408
/muse/elements/alpha_relative 0.105879 0.049292 0.075340 0.078302
/muse/elements/beta_relative 0.314376 0.367301 0.412839 0.298534
/muse/elements/delta_relative 0.211317 0.220949 0.192096 0.235501
/muse/elements/gamma_relative 0.154049 0.308636 0.260862 0.146251
/muse/elements/theta_relative 0.214379 0.053822 0.058863 0.241413
/muse/elements/horseshoe 1.000000 1.000000 1.000000 1.000000
/muse/elements/is_good 0 1 1 0
/muse/elements/blink [0]
/muse/elements/jaw_clench [0]
/muse/elements/touching_forehead [1]
/muse/elements/experimental/concentration [0.11468994617462158]
/muse/elements/experimental/mellow [0.0]
/muse/elements/low_freqs_absolute 1.256439 1.002267 1.054776 1.427480
/muse/elements/alpha_absolute 0.652152 0.256068 0.532199 0.642812
/muse/elements/beta_absolute 1.124790 1.128317 1.270954 1.224035
/muse/elements/delta_absolute 0.952275 0.907588 0.938691 1.121033
/muse/elements/gamma_absolute 0.814998 1.052742 1.071584 0.914139
/muse/elements/theta_absolute 0.958522 0.294256 0.425017 1.131801
Unknown message         
	 Source: 'osc.udp://127.0.0.1:55693/'         
	 Address: '/muse/eeg/quantization'         
	 Types: 'iiii '         
	 Payload: '[1, 1, 1, 1]'
/muse/eeg 842.229919 822.490173 840.584961 827.425110
/muse/eeg 852.099792 815.910278 820.845215 837.294983
/muse/eeg 853.744812 804.395386 796.170471 840.584961
/muse/eeg 843.874939 820.845215 820.845215 834.005005
/muse/eeg 834.005005 825.780151 825.780151 820.845215
/muse/eeg 817.555237 802.750427 820.845215 801.105408
/muse/eeg 822.490173 802.750427 852.099792 804.395386
/muse/eeg 838.940002 830.715088 852.099792 822.490173
/muse/eeg 840.584961 817.555237 834.005005 822.490173
/muse/eeg 834.005005 802.750427 815.910278 815.910278
/muse/eeg 847.164856 802.750427 814.265259 822.490173
/muse/eeg 848.809875 797.815491 834.005005 829.070068
/muse/eeg 852.099792 824.135132 842.229919 832.360046
/muse/eeg 835.650024 806.040344 799.460449 817.555237
/muse/eeg 820.845215 810.975281 822.490173 799.460449
/muse/acc 277.344177 859.376343 425.781921
/muse/acc 277.344177 855.470093 425.781921
/muse/acc 281.250427 855.470093 425.781921
/muse/eeg 830.715088 787.945557 832.360046 807.685364
Unknown message         
	 Source: 'osc.udp://127.0.0.1:55693/'         
	 Address: '/muse/eeg/quantization'         
	 Types: 'iiii '         
	 Payload: '[1, 1, 1, 1]'
/muse/eeg 829.070068 817.555237 835.650024 810.975281
/muse/eeg 837.294983 824.135132 852.099792 814.265259
/muse/eeg 845.519897 812.620300 819.200195 830.715088
/muse/eeg 855.389771 820.845215 838.940002 840.584961
/muse/eeg 850.454834 804.395386 863.614685 840.584961
/muse/eeg 843.874939 837.294983 847.164856 834.005005
/muse/elements/alpha_relative 0.105879 0.047074 0.072390 0.078302
/muse/elements/beta_relative 0.314376 0.378927 0.421538 0.298534
/muse/elements/delta_relative 0.211317 0.218347 0.180506 0.235501
/muse/elements/gamma_relative 0.154049 0.302989 0.267194 0.146251
/muse/elements/theta_relative 0.214379 0.052663 0.058372 0.241413
/muse/elements/horseshoe 1.000000 1.000000 1.000000 1.000000
/muse/elements/is_good 0 1 1 0
/muse/elements/blink [0]
/muse/elements/jaw_clench [0]
/muse/elements/touching_forehead [1]
/muse/elements/experimental/concentration [0.1284005492925644]
/muse/elements/experimental/mellow [0.0]
/muse/elements/low_freqs_absolute 1.256439 1.004302 1.017810 1.427480
/muse/elements/alpha_absolute 0.652152 0.244100 0.499313 0.642812
/muse/elements/beta_absolute 1.124790 1.149873 1.264471 1.224035
/muse/elements/delta_absolute 0.952275 0.910464 0.896125 1.121033
/muse/elements/gamma_absolute 0.814998 1.052745 1.066460 0.914139
/muse/elements/theta_absolute 0.958522 0.292822 0.405841 1.131801
/muse/eeg 835.650024 815.910278 804.395386 817.555237
/muse/eeg 843.874939 807.685364 789.590576 824.135132
/muse/eeg 838.940002 787.945557 815.910278 825.780151
/muse/eeg 850.454834 822.490173 838.940002 835.650024
/muse/eeg 845.519897 845.519897 845.519897 830.715088
/muse/eeg 840.584961 829.070068 840.584961 827.425110
/muse/eeg 838.940002 807.685364 829.070068 825.780151
/muse/eeg 840.584961 771.495789 838.940002 830.715088
/muse/eeg 845.519897 815.910278 840.584961 837.294983
/muse/acc 277.344177 855.470093 425.781921
/muse/drlref 1629032.250000 1641935.500000
/muse/acc 281.250427 855.470093 425.781921
/muse/acc 285.156708 851.563843 433.594421
/muse/acc 285.156708 855.470093 429.688171
/muse/eeg 840.584961 840.584961 832.360046 834.005005
Unknown message         
	 Source: 'osc.udp://127.0.0.1:55693/'         
	 Address: '/muse/eeg/quantization'         
	 Types: 'iiii '         
	 Payload: '[1, 1, 1, 1]'
/muse/eeg 847.164856 819.200195 799.460449 835.650024
/muse/eeg 853.744812 812.620300 834.005005 838.940002
/muse/eeg 853.744812 792.880554 852.099792 838.940002
/muse/eeg 834.005005 789.590576 840.584961 819.200195
/muse/eeg 842.229919 819.200195 861.969727 829.070068
/muse/eeg 852.099792 809.330322 827.425110 843.874939
/muse/eeg 840.584961 807.685364 794.525513 838.940002
/muse/eeg 850.454834 857.034729 814.265259 843.874939
/muse/eeg 850.454834 835.650024 830.715088 835.650024
/muse/eeg 842.229919 802.750427 809.330322 825.780151
/muse/eeg 840.584961 794.525513 855.389771 824.135132
/muse/eeg 835.650024 822.490173 858.679749 824.135132
/muse/elements/alpha_relative 0.105879 0.045886 0.071286 0.078302
/muse/elements/beta_relative 0.314376 0.390520 0.431704 0.298534
/muse/elements/delta_relative 0.211317 0.213921 0.169820 0.235501
/muse/elements/gamma_relative 0.154049 0.297775 0.269702 0.146251
/muse/elements/theta_relative 0.214379 0.051897 0.057488 0.241413
/muse/elements/horseshoe 1.000000 1.000000 1.000000 1.000000
/muse/elements/is_good 0 1 1 0
/muse/elements/blink [0]
/muse/elements/jaw_clench [0]
/muse/elements/touching_forehead [1]
/muse/elements/experimental/concentration [0.142111137509346]
/muse/elements/experimental/mellow [0.0]
/muse/elements/low_freqs_absolute 1.256439 1.011722 0.985941 1.427480
/muse/elements/alpha_absolute 0.652152 0.248818 0.482330 0.642812
/muse/elements/beta_absolute 1.124790 1.178780 1.264514 1.224035
/muse/elements/delta_absolute 0.952275 0.917390 0.859315 1.121033
/muse/elements/gamma_absolute 0.814998 1.061025 1.060212 0.914139
/muse/elements/theta_absolute 0.958522 0.302283 0.388903 1.131801
/muse/eeg 847.164856 810.975281 857.034729 835.650024
/muse/eeg 832.360046 822.490173 842.229919 820.845215
/muse/eeg 838.940002 806.040344 807.685364 829.070068
/muse/acc 281.250427 859.376343 429.688171
/muse/acc 289.062958 851.563843 433.594421
/muse/acc 289.062958 851.563843 433.594421
/muse/drlref 1629032.250000 1641935.500000
/muse/acc 285.156708 855.470093 433.594421
/muse/eeg 847.164856 807.685364 801.105408 835.650024
Unknown message         
	 Source: 'osc.udp://127.0.0.1:55693/'         
	 Address: '/muse/eeg/quantization'         
	 Types: 'iiii '         
	 Payload: '[1, 1, 1, 1]'
/muse/eeg 842.229919 842.229919 809.330322 829.070068
/muse/eeg 852.099792 810.975281 830.715088 843.874939
/muse/eeg 843.874939 815.910278 855.389771 838.940002
/muse/eeg 827.425110 794.525513 866.904663 820.845215
/muse/eeg 830.715088 824.135132 847.164856 817.555237
/muse/eeg 822.490173 834.005005 847.164856 809.330322
/muse/eeg 832.360046 809.330322 837.294983 829.070068
/muse/eeg 832.360046 799.460449 819.200195 825.780151
/muse/eeg 838.940002 806.040344 825.780151 825.780151
/muse/eeg 827.425110 807.685364 830.715088 815.910278
/muse/eeg 827.425110 809.330322 840.584961 817.555237
/muse/eeg 829.070068 807.685364 838.940002 817.555237
/muse/eeg 824.135132 783.010620 830.715088 820.845215
/muse/eeg 807.685364 787.945557 829.070068 806.040344
/muse/eeg 812.620300 809.330322 827.425110 804.395386
/muse/acc 281.250427 859.376343 437.500671
/muse/acc 281.250427 855.470093 433.594421
/muse/acc 281.250427 855.470093 429.688171
/muse/eeg 817.555237 812.620300 861.969727 809.330322
Unknown message         
	 Source: 'osc.udp://127.0.0.1:55693/'         
	 Address: '/muse/eeg/quantization'         
	 Types: 'iiii '         
	 Payload: '[1, 1, 1, 1]'
/muse/eeg 835.650024 801.105408 860.324707 830.715088
/muse/eeg 838.940002 825.780151 853.744812 829.070068
/muse/elements/alpha_relative 0.105879 0.046853 0.069480 0.078302
/muse/elements/beta_relative 0.314376 0.398635 0.444060 0.298534
/muse/elements/delta_relative 0.211317 0.208562 0.161636 0.235501
/muse/elements/gamma_relative 0.154049 0.294420 0.268307 0.146251
/muse/elements/theta_relative 0.214379 0.051530 0.056517 0.241413
/muse/elements/horseshoe 1.000000 1.000000 1.000000 1.000000
/muse/elements/is_good 0 1 1 0
/muse/elements/blink [0]
/muse/elements/jaw_clench [0]
/muse/elements/touching_forehead [1]
/muse/elements/experimental/concentration [0.15582174062728882]
/muse/elements/experimental/mellow [0.0]
/muse/elements/low_freqs_absolute 1.256439 1.021608 0.961084 1.427480
/muse/elements/alpha_absolute 0.652152 0.277217 0.464181 0.642812
/muse/elements/beta_absolute 1.124790 1.207056 1.269765 1.224035
/muse/elements/delta_absolute 0.952275 0.925715 0.830860 1.121033
/muse/elements/gamma_absolute 0.814998 1.075447 1.050955 0.914139
/muse/elements/theta_absolute 0.958522 0.318544 0.374505 1.131801
/muse/eeg 845.519897 794.525513 820.845215 835.650024
/muse/eeg 853.744812 804.395386 820.845215 843.874939
/muse/eeg 847.164856 792.880554 832.360046 837.294983
/muse/eeg 838.940002 769.850830 819.200195 825.780151
/muse/eeg 829.070068 837.294983 830.715088 810.975281
/muse/eeg 829.070068 822.490173 838.940002 807.685364
/muse/eeg 832.360046 814.265259 842.229919 814.265259
/muse/eeg 850.454834 802.750427 855.389771 832.360046
/muse/eeg 842.229919 815.910278 847.164856 824.135132
/muse/eeg 847.164856 819.200195 806.040344 829.070068
/muse/eeg 848.809875 804.395386 801.105408 829.070068
/muse/eeg 848.809875 809.330322 814.265259 830.715088
/muse/eeg 835.650024 787.945557 840.584961 820.845215
/muse/acc 285.156708 851.563843 429.688171
/muse/drlref 1625806.500000 1641935.500000
/muse/acc 285.156708 851.563843 429.688171
/muse/acc 285.156708 855.470093 429.688171
/muse/acc 289.062958 855.470093 425.781921
/muse/eeg 820.845215 815.910278 848.809875 804.395386
Unknown message         
	 Source: 'osc.udp://127.0.0.1:55693/'         
	 Address: '/muse/eeg/quantization'         
	 Types: 'iiii '         
	 Payload: '[1, 1, 1, 1]'
/muse/eeg 829.070068 819.200195 842.229919 810.975281
/muse/eeg 832.360046 809.330322 832.360046 817.555237
/muse/eeg 848.809875 802.750427 829.070068 835.650024
/muse/eeg 842.229919 807.685364 827.425110 830.715088
/muse/eeg 852.099792 794.525513 825.780151 840.584961
/muse/eeg 852.099792 797.815491 838.940002 837.294983
/muse/eeg 824.135132 784.655640 832.360046 810.975281
/muse/eeg 827.425110 820.845215 815.910278 810.975281
/muse/elements/alpha_relative 0.133072 0.046580 0.065886 0.025801
/muse/elements/beta_relative 0.425060 0.403201 0.459516 0.500712
/muse/elements/delta_relative 0.051764 0.202611 0.154606 0.075372
/muse/elements/gamma_relative 0.235774 0.296288 0.265551 0.280292
/muse/elements/theta_relative 0.154330 0.051319 0.054441 0.117823
/muse/elements/horseshoe 1.000000 1.000000 1.000000 1.000000
/muse/elements/is_good 1 1 1 1
/muse/elements/blink [0]
/muse/elements/jaw_clench [0]
/muse/elements/touching_forehead [1]
/muse/elements/experimental/concentration [0.17252174019813538]
/muse/elements/experimental/mellow [0.0]
/muse/elements/low_freqs_absolute 0.908810 1.025704 0.936383 0.858768
/muse/elements/alpha_absolute 0.718829 0.289192 0.434931 -0.015587
/muse/elements/beta_absolute 1.223195 1.226511 1.278440 1.272360
/muse/elements/delta_absolute 0.308770 0.927653 0.805365 0.449984
/muse/elements/gamma_absolute 0.967241 1.092703 1.040288 1.020383
/muse/elements/theta_absolute 0.783195 0.331268 0.352065 0.644002
/muse/eeg 832.360046 838.940002 799.460449 812.620300
/muse/eeg 842.229919 830.715088 832.360046 820.845215
/muse/eeg 838.940002 812.620300 829.070068 824.135132
/muse/eeg 845.519897 804.395386 835.650024 832.360046
/muse/eeg 843.874939 820.845215 848.809875 822.490173
/muse/eeg 843.874939 822.490173 830.715088 824.135132
/muse/eeg 825.780151 796.170471 834.005005 810.975281
/muse/eeg 830.715088 791.235535 822.490173 814.265259
/muse/acc 289.062958 855.470093 425.781921
Unknown message         
	 Source: 'osc.udp://127.0.0.1:55693/'         
	 Address: '/muse/config'         
	 Types: 's '         
	 Payload: '['{"mac_addr":"000666A069D0","serial_number":"1160-UJMN-69D0","preset":"14","filters_enabled":true,"notch_frequency_hz":60,"battery_data_enabled":true,"compression_enabled":true,"eeg_sample_frequency_hz":3520,"eeg_output_frequency_hz":220,"eeg_channel_count":4,"eeg_samples_bitwidth":10,"eeg_channel_layout":"TP9 FP1 FP2 TP10 ","eeg_downsample":16,"afe_gain":1961,"battery_percent_remaining":38,"battery_millivolts":3729,"eeg_units":"EEG_MICROVOLTS","acc_units":"ACC_GFORCE","eeg_conversion_factor":1.644980342484907,"drlref_conversion_factor":3225.806451612903,"acc_conversion_factor":3.906256109482,"acc_sample_frequency_hz":50,"drlref_sample_frequency_hz":10,"acc_data_enabled":true,"drlref_data_enabled":true,"error_data_enabled":true}\n']'
Unknown message         
	 Source: 'osc.udp://127.0.0.1:55693/'         
	 Address: '/muse/version'         
	 Types: 's '         
	 Payload: '['{"hardware_version":"16.0.0","firmware_headset_version":"7.2.7","firmware_bootloader_version":"7.2.7","firmware_type":"Research","build_number":41,"protocol_version":2}\n']'
/muse/acc 292.969208 855.470093 429.688171
/muse/acc 292.969208 855.470093 429.688171
/muse/drlref 1629032.250000 1641935.500000
/muse/acc 292.969208 855.470093 425.781921
/muse/eeg 848.809875 814.265259 810.975281 840.584961
Unknown message         
	 Source: 'osc.udp://127.0.0.1:55693/'         
	 Address: '/muse/eeg/quantization'         
	 Types: 'iiii '         
	 Payload: '[1, 1, 1, 1]'
/muse/eeg 837.294983 796.170471 834.005005 834.005005
/muse/eeg 845.519897 807.685364 819.200195 842.229919
/muse/eeg 832.360046 815.910278 819.200195 824.135132
/muse/eeg 829.070068 804.395386 830.715088 817.555237
/muse/eeg 819.200195 834.005005 809.330322 807.685364
/muse/eeg 820.845215 830.715088 847.164856 806.040344
/muse/eeg 837.294983 834.005005 855.389771 820.845215
/muse/eeg 842.229919 802.750427 827.425110 827.425110
/muse/eeg 829.070068 807.685364 842.229919 817.555237
/muse/eeg 832.360046 815.910278 835.650024 810.975281
/muse/eeg 834.005005 807.685364 815.910278 819.200195
/muse/eeg 847.164856 822.490173 825.780151 834.005005
/muse/eeg 845.519897 799.460449 814.265259 832.360046
/muse/elements/alpha_relative 0.135226 0.047673 0.061708 0.030066
/muse/elements/beta_relative 0.420478 0.404433 0.480008 0.482693
/muse/elements/delta_relative 0.056943 0.192404 0.143930 0.083445
/muse/elements/gamma_relative 0.234190 0.304691 0.264411 0.278007
/muse/elements/theta_relative 0.153163 0.050798 0.049943 0.125789
/muse/elements/horseshoe 1.000000 1.000000 1.000000 1.000000
/muse/elements/is_good 1 1 1 1
/muse/elements/blink [0]
/muse/elements/jaw_clench [0]
/muse/elements/touching_forehead [1]
/muse/elements/experimental/concentration [0.18922173976898193]
/muse/elements/experimental/mellow [0.0]
/muse/elements/low_freqs_absolute 0.910871 1.011836 0.896931 0.888037
/muse/elements/alpha_absolute 0.719490 0.304140 0.399758 0.045478
/muse/elements/beta_absolute 1.212175 1.232715 1.290662 1.251077
/muse/elements/delta_absolute 0.343872 0.910083 0.767565 0.488808
/muse/elements/gamma_absolute 0.958000 1.109727 1.031693 1.011461
/muse/elements/theta_absolute 0.773586 0.331715 0.307889 0.667046
/muse/eeg 835.650024 801.105408 832.360046 825.780151
/muse/eeg 830.715088 824.135132 829.070068 815.910278
/muse/acc 292.969208 855.470093 425.781921
/muse/acc 292.969208 855.470093 425.781921
/muse/acc 292.969208 859.376343 425.781921
/muse/eeg 829.070068 815.910278 852.099792 810.975281
Unknown message         
	 Source: 'osc.udp://127.0.0.1:55693/'         
	 Address: '/muse/eeg/quantization'         
	 Types: 'iiii '         
	 Payload: '[1, 1, 1, 1]'
/muse/eeg 837.294983 789.590576 848.809875 822.490173
/muse/eeg 852.099792 829.070068 850.454834 837.294983
/muse/eeg 850.454834 810.975281 837.294983 832.360046
/muse/eeg 838.940002 806.040344 825.780151 825.780151
/muse/eeg 837.294983 819.200195 812.620300 820.845215
/muse/eeg 825.780151 806.040344 822.490173 809.330322
/muse/eeg 835.650024 822.490173 840.584961 817.555237
/muse/eeg 840.584961 820.845215 825.780151 817.555237
/muse/eeg 860.324707 819.200195 858.679749 832.360046
/muse/eeg 860.324707 804.395386 838.940002 829.070068
/muse/eeg 848.809875 819.200195 840.584961 822.490173
/muse/eeg 858.679749 819.200195 845.519897 829.070068
/muse/eeg 857.034729 809.330322 838.940002 830.715088
/muse/eeg 843.874939 802.750427 819.200195 824.135132
/muse/eeg 838.940002 822.490173 838.940002 827.425110
/muse/acc 292.969208 855.470093 425.781921
/muse/drlref 1629032.250000 1641935.500000
/muse/acc 289.062958 855.470093 421.875671
/muse/acc 292.969208 855.470093 421.875671
/muse/acc 292.969208 855.470093 421.875671
/muse/eeg 832.360046 829.070068 850.454834 822.490173
Unknown message         
	 Source: 'osc.udp://127.0.0.1:55693/'         
	 Address: '/muse/eeg/quantization'         
	 Types: 'iiii '         
	 Payload: '[1, 1, 1, 1]'
/muse/eeg 853.744812 819.200195 842.229919 843.874939
/muse/eeg 848.809875 820.845215 835.650024 842.229919
/muse/eeg 843.874939 801.105408 817.555237 838.940002
/muse/elements/alpha_relative 0.139302 0.050062 0.053251 0.033939
/muse/elements/beta_relative 0.420597 0.405041 0.510326 0.475154
/muse/elements/delta_relative 0.060607 0.175992 0.125707 0.090250
/muse/elements/gamma_relative 0.228045 0.319447 0.267912 0.271662
/muse/elements/theta_relative 0.151448 0.049458 0.042804 0.128995
/muse/elements/horseshoe 1.000000 1.000000 1.000000 1.000000
/muse/elements/is_good 1 1 1 1
/muse/elements/blink [0]
/muse/elements/jaw_clench [0]
/muse/elements/touching_forehead [1]
/muse/elements/experimental/concentration [0.20526252686977386]
/muse/elements/experimental/mellow [0.0]
/muse/elements/low_freqs_absolute 0.901983 0.971539 0.826686 0.897152
/muse/elements/alpha_absolute 0.719490 0.317996 0.326390 0.086915
/muse/elements/beta_absolute 1.199400 1.225988 1.307906 1.233057
/muse/elements/delta_absolute 0.358059 0.863981 0.699418 0.511669
/muse/elements/gamma_absolute 0.933554 1.122887 1.028050 0.990251
/muse/elements/theta_absolute 0.755798 0.312728 0.231540 0.666795
/muse/eeg 845.519897 810.975281 820.845215 837.294983
/muse/eeg 855.389771 810.975281 843.874939 840.584961
/muse/eeg 848.809875 784.655640 845.519897 829.070068
/muse/eeg 847.164856 797.815491 842.229919 824.135132
/muse/eeg 847.164856 832.360046 832.360046 825.780151
/muse/eeg 848.809875 827.425110 829.070068 830.715088
/muse/eeg 852.099792 815.910278 834.005005 835.650024
/muse/eeg 848.809875 794.525513 822.490173 832.360046
/muse/eeg 847.164856 778.075684 830.715088 834.005005
/muse/eeg 843.874939 824.135132 843.874939 827.425110
/muse/eeg 837.294983 837.294983 838.940002 822.490173
/muse/eeg 845.519897 814.265259 827.425110 827.425110
/muse/acc 296.875458 851.563843 421.875671
/muse/acc 292.969208 851.563843 421.875671
/muse/acc 296.875458 851.563843 425.781921
/muse/drlref 1625806.500000 1641935.500000
/muse/eeg 850.454834 796.170471 825.780151 835.650024
Unknown message         
	 Source: 'osc.udp://127.0.0.1:55693/'         
	 Address: '/muse/eeg/quantization'         
	 Types: 'iiii '         
	 Payload: '[1, 1, 1, 1]'
/muse/eeg 838.940002 791.235535 815.910278 825.780151
/muse/eeg 843.874939 812.620300 820.845215 827.425110
/muse/eeg 853.744812 817.555237 848.809875 834.005005
/muse/eeg 852.099792 825.780151 840.584961 827.425110
/muse/eeg 858.679749 822.490173 842.229919 838.940002
/muse/eeg 843.874939 829.070068 850.454834 827.425110
/muse/eeg 840.584961 834.005005 838.940002 812.620300
/muse/eeg 837.294983 804.395386 807.685364 817.555237
/muse/eeg 832.360046 794.525513 797.815491 814.265259
/muse/elements/alpha_relative 0.144120 0.057508 0.041448 0.036706
/muse/elements/beta_relative 0.422227 0.406190 0.549388 0.474879
/muse/elements/delta_relative 0.063602 0.153083 0.099446 0.095630
/muse/elements/gamma_relative 0.218961 0.336434 0.275392 0.264089
/muse/elements/theta_relative 0.151090 0.046785 0.034326 0.128697
/muse/elements/horseshoe 1.000000 1.000000 1.000000 1.000000
/muse/elements/is_good 1 1 1 1
/muse/elements/blink [0]
/muse/elements/jaw_clench [0]
/muse/elements/touching_forehead [1]
/muse/elements/experimental/concentration [0.22064411640167236]
/muse/elements/experimental/mellow [0.0]
/muse/elements/low_freqs_absolute 0.892584 0.903375 0.716440 0.893678
/muse/elements/alpha_absolute 0.719490 0.362359 0.207581 0.107529
/muse/elements/beta_absolute 1.186313 1.211360 1.329953 1.219380
/muse/elements/delta_absolute 0.364241 0.787558 0.587661 0.523390
/muse/elements/gamma_absolute 0.901134 1.129531 1.030025 0.964547
/muse/elements/theta_absolute 0.740003 0.272739 0.125700 0.652365
/muse/eeg 834.005005 801.105408 807.685364 812.620300
/muse/eeg 845.519897 812.620300 845.519897 824.135132
/muse/eeg 852.099792 804.395386 853.744812 829.070068
/muse/eeg 848.809875 797.815491 863.614685 830.715088
/muse/eeg 850.454834 810.975281 855.389771 837.294983
/muse/eeg 837.294983 829.070068 834.005005 824.135132
/muse/acc 292.969208 851.563843 425.781921
/muse/acc 289.062958 859.376343 429.688171
/muse/acc 289.062958 855.470093 429.688171
/muse/acc 292.969208 855.470093 429.688171
/muse/eeg 835.650024 838.940002 830.715088 817.555237
Unknown message         
	 Source: 'osc.udp://127.0.0.1:55693/'         
	 Address: '/muse/eeg/quantization'         
	 Types: 'iiii '         
	 Payload: '[1, 1, 1, 1]'
/muse/eeg 847.164856 819.200195 809.330322 824.135132
/muse/eeg 858.679749 796.170471 797.815491 838.940002
/muse/eeg 855.389771 792.880554 829.070068 834.005005
/muse/eeg 853.744812 825.780151 861.969727 834.005005
/muse/eeg 848.809875 817.555237 848.809875 822.490173
/muse/eeg 843.874939 794.525513 855.389771 817.555237
/muse/eeg 829.070068 824.135132 835.650024 807.685364
/muse/eeg 830.715088 812.620300 810.975281 810.975281
/muse/eeg 838.940002 802.750427 810.975281 820.845215
/muse/eeg 857.034729 824.135132 847.164856 837.294983
/muse/eeg 863.614685 794.525513 855.389771 853.744812
/muse/eeg 842.229919 830.715088 860.324707 820.845215
/muse/eeg 825.780151 820.845215 852.099792 807.685364
/muse/eeg 842.229919 810.975281 835.650024 822.490173
/muse/eeg 850.454834 810.975281 842.229919 832.360046
/muse/elements/alpha_relative 0.148859 0.063230 0.030673 0.037982
/muse/elements/beta_relative 0.422641 0.412290 0.588771 0.477798
/muse/elements/delta_relative 0.066360 0.128372 0.070701 0.098751
/muse/elements/gamma_relative 0.209981 0.352680 0.283066 0.258624
/muse/elements/theta_relative 0.152160 0.043429 0.026788 0.126845
/muse/elements/horseshoe 1.000000 1.000000 1.000000 1.000000
/muse/elements/is_good 1 1 1 1
/muse/elements/blink [0]
/muse/elements/jaw_clench [0]
/muse/elements/touching_forehead [1]
/muse/elements/experimental/concentration [0.2352144420146942]
/muse/elements/experimental/mellow [0.0]
/muse/elements/low_freqs_absolute 0.886203 0.815968 0.572659 0.882123
/muse/elements/alpha_absolute 0.719490 0.381864 0.070466 0.108363
/muse/elements/beta_absolute 1.172685 1.196146 1.353650 1.208034
/muse/elements/delta_absolute 0.368617 0.689413 0.433130 0.523334
/muse/elements/gamma_absolute 0.868893 1.128324 1.035591 0.941459
/muse/elements/theta_absolute 0.729013 0.218722 0.011642 0.632064
/muse/acc 292.969208 851.563843 425.781921
/muse/drlref 1629032.250000 1645161.250000
/muse/acc 296.875458 851.563843 425.781921
/muse/acc 296.875458 847.657593 425.781921
/muse/acc 296.875458 851.563843 425.781921
/muse/eeg 852.099792 815.910278 837.294983 838.940002
Unknown message         
	 Source: 'osc.udp://127.0.0.1:55693/'         
	 Address: '/muse/eeg/quantization'         
	 Types: 'iiii '         
	 Payload: '[1, 1, 1, 1]'
/muse/eeg 840.584961 820.845215 819.200195 822.490173
/muse/eeg 835.650024 804.395386 822.490173 820.845215
/muse/eeg 837.294983 794.525513 814.265259 817.555237
/muse/eeg 855.389771 806.040344 819.200195 835.650024
/muse/eeg 858.679749 834.005005 812.620300 838.940002
/muse/eeg 847.164856 825.780151 820.845215 824.135132
/muse/eeg 845.519897 845.519897 835.650024 824.135132
/muse/eeg 857.034729 827.425110 817.555237 835.650024
/muse/eeg 861.969727 842.229919 814.265259 834.005005
/muse/eeg 855.389771 824.135132 812.620300 834.005005
/muse/eeg 861.969727 825.780151 809.330322 834.005005
/muse/eeg 868.549622 838.940002 822.490173 834.005005
/muse/eeg 848.809875 815.910278 838.940002 819.200195
/muse/eeg 850.454834 838.940002 834.005005 820.845215
/muse/eeg 857.034729 827.425110 804.395386 832.360046
/muse/acc 300.781708 851.563843 429.688171
/muse/acc 300.781708 851.563843 429.688171
/muse/acc 296.875458 851.563843 433.594421
/muse/drlref 1629032.250000 1641935.500000
/muse/eeg 840.584961 819.200195 802.750427 817.555237
Unknown message         
	 Source: 'osc.udp://127.0.0.1:55693/'         
	 Address: '/muse/eeg/quantization'         
	 Types: 'iiii '         
	 Payload: '[1, 1, 1, 1]'
/muse/eeg 853.744812 822.490173 830.715088 824.135132
/muse/eeg 845.519897 797.815491 835.650024 824.135132
/muse/eeg 853.744812 829.070068 835.650024 827.425110
/muse/eeg 853.744812 824.135132 801.105408 837.294983
/muse/eeg 843.874939 824.135132 797.815491 829.070068
/muse/elements/alpha_relative 0.153216 0.067186 0.023975 0.039189
/muse/elements/beta_relative 0.421052 0.422430 0.618632 0.480537
/muse/elements/delta_relative 0.068457 0.106799 0.047047 0.099384
/muse/elements/gamma_relative 0.203232 0.363562 0.287925 0.256212
/muse/elements/theta_relative 0.154043 0.040024 0.022420 0.124678
/muse/elements/horseshoe 1.000000 1.000000 1.000000 1.000000
/muse/elements/is_good 1 1 1 1
/muse/elements/blink [0]
/muse/elements/jaw_clench [0]
/muse/elements/touching_forehead [1]
/muse/elements/experimental/concentration [0.2485828697681427]
/muse/elements/experimental/mellow [0.0]
/muse/elements/low_freqs_absolute 0.881516 0.727170 0.424317 0.865568
/muse/elements/alpha_absolute 0.719490 0.387651 -0.037704 0.108363
/muse/elements/beta_absolute 1.158521 1.186130 1.373966 1.196926
/muse/elements/delta_absolute 0.369605 0.588945 0.255070 0.512516
/muse/elements/gamma_absolute 0.842177 1.120954 1.041814 0.923798
/muse/elements/theta_absolute 0.721827 0.162691 -0.066825 0.610990
/muse/eeg 865.259644 827.425110 838.940002 847.164856
/muse/eeg 868.549622 850.454834 866.904663 848.809875
/muse/eeg 865.259644 810.975281 825.780151 847.164856
/muse/eeg 847.164856 792.880554 806.040344 825.780151
/muse/eeg 843.874939 796.170471 812.620300 822.490173
/muse/eeg 842.229919 837.294983 835.650024 822.490173
/muse/eeg 850.454834 845.519897 843.874939 830.715088
/muse/eeg 853.744812 820.845215 837.294983 834.005005
/muse/eeg 853.744812 796.170471 819.200195 829.070068
/muse/eeg 860.324707 804.395386 830.715088 837.294983
/muse/acc 292.969208 855.470093 429.688171
/muse/acc 292.969208 851.563843 429.688171
/muse/acc 292.969208 851.563843 433.594421
/muse/acc 289.062958 855.470093 429.688171
/muse/eeg 855.389771 840.584961 825.780151 829.070068
Unknown message         
	 Source: 'osc.udp://127.0.0.1:55693/'         
	 Address: '/muse/eeg/quantization'         
	 Types: 'iiii '         
	 Payload: '[1, 1, 1, 1]'
/muse/eeg 861.969727 830.715088 822.490173 838.940002
/muse/eeg 865.259644 820.845215 825.780151 838.940002
/muse/eeg 870.194580 789.590576 812.620300 845.519897
/muse/eeg 850.454834 804.395386 822.490173 827.425110
/muse/eeg 847.164856 824.135132 850.454834 820.845215
/muse/eeg 847.164856 829.070068 850.454834 825.780151
/muse/eeg 838.940002 789.590576 822.490173 819.200195
/muse/eeg 848.809875 809.330322 815.910278 832.360046
/muse/eeg 848.809875 837.294983 817.555237 832.360046
/muse/eeg 848.809875 806.040344 815.910278 829.070068
/muse/eeg 842.229919 820.845215 829.070068 822.490173
/muse/elements/alpha_relative 0.157545 0.071460 0.021132 0.040461
/muse/elements/beta_relative 0.418203 0.432310 0.634611 0.481635
/muse/elements/delta_relative 0.070260 0.091310 0.033062 0.098590
/muse/elements/gamma_relative 0.199965 0.367651 0.289739 0.257048
/muse/elements/theta_relative 0.154027 0.037268 0.021456 0.122267
/muse/elements/horseshoe 1.000000 1.000000 1.000000 1.000000
/muse/elements/is_good 1 1 1 1
/muse/elements/blink [0]
/muse/elements/jaw_clench [0]
/muse/elements/touching_forehead [1]
/muse/elements/experimental/concentration [0.2612344026565552]
/muse/elements/experimental/mellow [0.0]
/muse/elements/low_freqs_absolute 0.872888 0.655284 0.321856 0.845441
/muse/elements/alpha_absolute 0.719490 0.400176 -0.089739 0.108363
/muse/elements/beta_absolute 1.143472 1.181910 1.387825 1.184048
/muse/elements/delta_absolute 0.368792 0.506635 0.104651 0.495162
/muse/elements/gamma_absolute 0.823038 1.111550 1.047324 0.911345
/muse/elements/theta_absolute 0.709681 0.117456 -0.083144 0.588640
/muse/eeg 852.099792 801.105408 835.650024 830.715088
/muse/eeg 845.519897 832.360046 850.454834 827.425110
/muse/eeg 845.519897 829.070068 837.294983 824.135132
/muse/eeg 838.940002 810.975281 840.584961 822.490173
/muse/eeg 843.874939 787.945557 847.164856 830.715088
/muse/acc 289.062958 851.563843 429.688171
/muse/drlref 1625806.500000 1641935.500000
/muse/acc 292.969208 851.563843 429.688171
/muse/acc 292.969208 851.563843 429.688171
/muse/acc 292.969208 851.563843 429.688171
/muse/eeg 842.229919 807.685364 834.005005 825.780151
Unknown message         
	 Source: 'osc.udp://127.0.0.1:55693/'         
	 Address: '/muse/eeg/quantization'         
	 Types: 'iiii '         
	 Payload: '[1, 1, 1, 1]'
/muse/eeg 842.229919 829.070068 829.070068 829.070068
/muse/eeg 832.360046 809.330322 835.650024 819.200195
/muse/eeg 842.229919 815.910278 834.005005 817.555237
/muse/eeg 847.164856 797.815491 825.780151 829.070068
/muse/eeg 845.519897 822.490173 810.975281 827.425110
/muse/eeg 842.229919 830.715088 810.975281 822.490173
/muse/eeg 838.940002 819.200195 834.005005 817.555237
/muse/eeg 842.229919 802.750427 860.324707 820.845215
/muse/eeg 837.294983 824.135132 848.809875 815.910278
/muse/eeg 850.454834 840.584961 820.845215 822.490173
/muse/eeg 847.164856 810.975281 825.780151 820.845215
/muse/eeg 832.360046 801.105408 837.294983 809.330322
/muse/eeg 847.164856 787.945557 829.070068 830.715088
/muse/eeg 840.584961 822.490173 809.330322 829.070068
/muse/eeg 850.454834 837.294983 817.555237 829.070068
/muse/acc 292.969208 851.563843 429.688171
/muse/acc 292.969208 851.563843 429.688171
/muse/drlref 1629032.250000 1641935.500000
/muse/acc 292.969208 851.563843 429.688171
/muse/eeg 848.809875 834.005005 852.099792 832.360046
/muse/elements/alpha_relative 0.162051 0.076613 0.021506 0.043838
/muse/elements/beta_relative 0.414468 0.438030 0.637553 0.479388
/muse/elements/delta_relative 0.071764 0.082282 0.027523 0.097415
/muse/elements/gamma_relative 0.199814 0.367317 0.290378 0.259762
/muse/elements/theta_relative 0.151903 0.035758 0.023039 0.119597
/muse/elements/horseshoe 1.000000 1.000000 1.000000 1.000000
/muse/elements/is_good 1 1 1 1
/muse/elements/blink [0]
/muse/elements/jaw_clench [0]
/muse/elements/touching_forehead [1]
/muse/elements/experimental/concentration [0.2734009325504303]
/muse/elements/experimental/mellow [0.0]
/muse/elements/low_freqs_absolute 0.859441 0.611264 0.294476 0.824437
/muse/elements/alpha_absolute 0.719490 0.423537 -0.076782 0.129806
/muse/elements/beta_absolute 1.127329 1.180739 1.395168 1.168640
/muse/elements/delta_absolute 0.365744 0.454540 0.030351 0.476580
/muse/elements/gamma_absolute 0.810464 1.104277 1.053616 0.902529
/muse/elements/theta_absolute 0.691406 0.092608 -0.046890 0.565673
Unknown message         
	 Source: 'osc.udp://127.0.0.1:55693/'         
	 Address: '/muse/eeg/quantization'         
	 Types: 'iiii '         
	 Payload: '[1, 1, 1, 1]'
/muse/eeg 838.940002 783.010620 838.940002 827.425110
/muse/eeg 840.584961 791.235535 834.005005 825.780151
/muse/eeg 834.005005 827.425110 832.360046 820.845215
/muse/eeg 834.005005 830.715088 832.360046 820.845215
/muse/eeg 837.294983 827.425110 827.425110 824.135132
/muse/eeg 838.940002 806.040344 827.425110 824.135132
/muse/eeg 842.229919 815.910278 827.425110 825.780151
/muse/eeg 848.809875 804.395386 822.490173 830.715088
/muse/eeg 857.034729 819.200195 838.940002 838.940002
/muse/eeg 858.679749 796.170471 822.490173 845.519897
/muse/eeg 843.874939 827.425110 830.715088 827.425110
/muse/eeg 853.744812 830.715088 852.099792 835.650024
/muse/eeg 850.454834 820.845215 847.164856 832.360046
/muse/eeg 848.809875 806.040344 835.650024 832.360046
/muse/eeg 827.425110 801.105408 822.490173 817.555237
/muse/acc 296.875458 851.563843 429.688171
/muse/acc 296.875458 851.563843 429.688171
/muse/acc 296.875458 851.563843 429.688171
/muse/acc 296.875458 851.563843 429.688171
/muse/eeg 822.490173 819.200195 812.620300 804.395386
Unknown message         
	 Source: 'osc.udp://127.0.0.1:55693/'         
	 Address: '/muse/eeg/quantization'         
	 Types: 'iiii '         
	 Payload: '[1, 1, 1, 1]'
/muse/eeg 834.005005 838.940002 830.715088 814.265259
/muse/eeg 834.005005 815.910278 834.005005 819.200195
/muse/eeg 843.874939 817.555237 838.940002 822.490173
/muse/eeg 843.874939 819.200195 842.229919 824.135132
/muse/eeg 843.874939 824.135132 830.715088 824.135132
/muse/eeg 835.650024 830.715088 834.005005 817.555237
/muse/elements/alpha_relative 0.166721 0.078930 0.028294 0.050246
/muse/elements/beta_relative 0.409810 0.439266 0.627809 0.473663
/muse/elements/delta_relative 0.073943 0.079223 0.026512 0.096362
/muse/elements/gamma_relative 0.201715 0.367005 0.291241 0.263169
/muse/elements/theta_relative 0.147811 0.035576 0.026144 0.116560
/muse/elements/horseshoe 1.000000 1.000000 1.000000 1.000000
/muse/elements/is_good 1 1 1 1
/muse/elements/blink [0]
/muse/elements/jaw_clench [0]
/muse/elements/touching_forehead [1]
/muse/elements/experimental/concentration [0.28508248925209045]
/muse/elements/experimental/mellow [0.0]
/muse/elements/low_freqs_absolute 0.843371 0.596713 0.321276 0.803651
/muse/elements/alpha_absolute 0.719490 0.434016 0.051513 0.176530
/muse/elements/beta_absolute 1.110083 1.179502 1.397654 1.150900
/muse/elements/delta_absolute 0.366395 0.435627 0.023265 0.459336
/muse/elements/gamma_absolute 0.802237 1.101447 1.064078 0.895666
/muse/elements/theta_absolute 0.667208 0.087929 0.017206 0.541980
/muse/eeg 825.780151 817.555237 832.360046 807.685364
/muse/eeg 817.555237 820.845215 834.005005 799.460449
/muse/eeg 809.330322 820.845215 842.229919 789.590576
/muse/eeg 784.655640 827.425110 845.519897 769.850830
/muse/eeg 778.075684 825.780151 835.650024 759.980896
/muse/eeg 766.560852 812.620300 832.360046 743.531128
/muse/eeg 738.596191 840.584961 835.650024 712.276489
/muse/eeg 725.436340 809.330322 832.360046 705.696594
/muse/eeg 704.051575 817.555237 840.584961 684.311829
/muse/acc 296.875458 847.657593 429.688171
/muse/drlref 1629032.250000 1645161.250000
/muse/acc 296.875458 843.751343 429.688171
/muse/acc 300.781708 847.657593 429.688171
/muse/eeg 700.761597 797.815491 827.425110 677.731873
Unknown message         
	 Source: 'osc.udp://127.0.0.1:55693/'         
	 Address: '/muse/eeg/quantization'         
	 Types: 'iiii '         
	 Payload: '[1, 1, 1, 1]'
/muse/eeg 681.021851 804.395386 819.200195 662.927063
/muse/eeg 674.441956 825.780151 827.425110 651.412231
/muse/eeg 669.507019 796.170471 819.200195 646.477295
/muse/eeg 669.507019 820.845215 832.360046 643.187317
/muse/eeg 687.601807 837.294983 840.584961 667.862000
/muse/eeg 679.376892 834.005005 812.620300 659.637146
/muse/eeg 672.796936 829.070068 802.750427 653.057190
/muse/eeg 677.731873 834.005005 822.490173 656.347168
/muse/eeg 685.956787 802.750427 806.040344 669.507019
/muse/eeg 707.341553 853.744812 863.614685 684.311829
/muse/eeg 723.791321 837.294983 860.324707 710.631531
/muse/eeg 707.341553 804.395386 804.395386 695.826660
/muse/elements/alpha_relative 0.169222 0.081234 0.037460 0.055563
/muse/elements/beta_relative 0.399756 0.435065 0.610485 0.460777
/muse/elements/delta_relative 0.080827 0.080483 0.027980 0.100288
/muse/elements/gamma_relative 0.201542 0.366858 0.294293 0.262854
/muse/elements/theta_relative 0.148653 0.036360 0.029781 0.120518
/muse/elements/horseshoe 1.000000 1.000000 1.000000 1.000000
/muse/elements/is_good 1 1 1 1
/muse/elements/blink [0]
/muse/elements/jaw_clench [0]
/muse/elements/touching_forehead [1]
/muse/elements/experimental/concentration [0.29657304286956787]
/muse/elements/experimental/mellow [0.0]
/muse/elements/low_freqs_absolute 0.851777 0.605021 0.372978 0.813141
/muse/elements/alpha_absolute 0.719490 0.447154 0.184905 0.213918
/muse/elements/beta_absolute 1.092829 1.175972 1.397015 1.132621
/muse/elements/delta_absolute 0.398590 0.443123 0.058195 0.470380
/muse/elements/gamma_absolute 0.795400 1.101916 1.080120 0.888845
/muse/elements/theta_absolute 0.663206 0.098040 0.085279 0.550182
/muse/eeg 713.921448 810.975281 838.940002 700.761597
/muse/eeg 730.371277 806.040344 840.584961 713.921448
/muse/eeg 741.886108 825.780151 855.389771 720.501404
/muse/acc 300.781708 847.657593 433.594421
/muse/acc 304.687988 843.751343 433.594421
/muse/acc 304.687988 843.751343 437.500671
/muse/drlref 1629032.250000 1641935.500000
/muse/acc 304.687988 843.751343 437.500671
/muse/eeg 763.270874 822.490173 850.454834 748.466064
Unknown message         
	 Source: 'osc.udp://127.0.0.1:55693/'         
	 Address: '/muse/eeg/quantization'         
	 Types: 'iiii '         
	 Payload: '[1, 1, 1, 1]'
/muse/eeg 792.880554 837.294983 834.005005 773.140747
/muse/eeg 801.105408 820.845215 832.360046 783.010620
/muse/eeg 799.460449 810.975281 830.715088 783.010620
/muse/eeg 783.010620 797.815491 812.620300 763.270874
/muse/eeg 789.590576 797.815491 820.845215 764.915833
/muse/eeg 822.490173 822.490173 838.940002 789.590576
/muse/eeg 834.005005 832.360046 852.099792 804.395386
/muse/eeg 840.584961 832.360046 865.259644 809.330322
/muse/eeg 852.099792 806.040344 845.519897 827.425110
/muse/eeg 855.389771 802.750427 817.555237 840.584961
/muse/eeg 850.454834 792.880554 847.164856 842.229919
/muse/eeg 830.715088 822.490173 843.874939 824.135132
/muse/eeg 837.294983 801.105408 824.135132 825.780151
/muse/eeg 853.744812 809.330322 817.555237 848.809875
/muse/eeg 852.099792 806.040344 835.650024 845.519897
/muse/acc 300.781708 843.751343 437.500671
/muse/acc 304.687988 847.657593 441.406952
/muse/acc 296.875458 851.563843 441.406952
/muse/acc 300.781708 847.657593 437.500671
/muse/eeg 853.744812 806.040344 852.099792 838.940002
Unknown message         
	 Source: 'osc.udp://127.0.0.1:55693/'         
	 Address: '/muse/eeg/quantization'         
	 Types: 'iiii '         
	 Payload: '[1, 1, 1, 1]'
/muse/eeg 852.099792 822.490173 852.099792 832.360046
/muse/eeg 853.744812 796.170471 850.454834 834.005005
/muse/elements/alpha_relative 0.169222 0.081295 0.042434 0.055563
/muse/elements/beta_relative 0.399756 0.427310 0.592925 0.460777
/muse/elements/delta_relative 0.080827 0.085061 0.031156 0.100288
/muse/elements/gamma_relative 0.201542 0.368183 0.300277 0.262854
/muse/elements/theta_relative 0.148653 0.038151 0.033208 0.120518
/muse/elements/horseshoe 1.000000 1.000000 1.000000 1.000000
/muse/elements/is_good 1 1 1 1
/muse/elements/blink [0]
/muse/elements/jaw_clench [0]
/muse/elements/touching_forehead [1]
/muse/elements/experimental/concentration [0.3080635964870453]
/muse/elements/experimental/mellow [0.0]
/muse/elements/low_freqs_absolute 0.851777 0.627744 0.429954 0.813141
/muse/elements/alpha_absolute 0.719490 0.447154 0.249032 0.213918
/muse/elements/beta_absolute 1.092829 1.167833 1.394313 1.132621
/muse/elements/delta_absolute 0.398590 0.466823 0.114853 0.470380
/muse/elements/gamma_absolute 0.795400 1.103153 1.098836 0.888845
/muse/elements/theta_absolute 0.663206 0.118594 0.142554 0.550182
/muse/eeg 861.969727 797.815491 843.874939 848.809875
/muse/eeg 873.484558 797.815491 819.200195 853.744812
/muse/eeg 876.774536 812.620300 824.135132 860.324707
/muse/eeg 863.614685 810.975281 825.780151 847.164856
/muse/eeg 875.129517 797.815491 820.845215 861.969727
/muse/eeg 873.484558 791.235535 837.294983 860.324707
/muse/eeg 866.904663 801.105408 866.904663 852.099792
/muse/eeg 871.839600 822.490173 842.229919 857.034729
/muse/eeg 884.999451 820.845215 847.164856 875.129517
/muse/eeg 880.064453 812.620300 837.294983 861.969727
/muse/eeg 880.064453 789.590576 843.874939 861.969727
/muse/eeg 860.324707 806.040344 850.454834 843.874939
/muse/eeg 881.709473 820.845215 829.070068 860.324707
Unknown message         
	 Source: 'osc.udp://127.0.0.1:55693/'         
	 Address: '/muse/config'         
	 Types: 's '         
	 Payload: '['{"mac_addr":"000666A069D0","serial_number":"1160-UJMN-69D0","preset":"14","filters_enabled":true,"notch_frequency_hz":60,"battery_data_enabled":true,"compression_enabled":true,"eeg_sample_frequency_hz":3520,"eeg_output_frequency_hz":220,"eeg_channel_count":4,"eeg_samples_bitwidth":10,"eeg_channel_layout":"TP9 FP1 FP2 TP10 ","eeg_downsample":16,"afe_gain":1961,"battery_percent_remaining":38,"battery_millivolts":3729,"eeg_units":"EEG_MICROVOLTS","acc_units":"ACC_GFORCE","eeg_conversion_factor":1.644980342484907,"drlref_conversion_factor":3225.806451612903,"acc_conversion_factor":3.906256109482,"acc_sample_frequency_hz":50,"drlref_sample_frequency_hz":10,"acc_data_enabled":true,"drlref_data_enabled":true,"error_data_enabled":true}\n']'
Unknown message         
	 Source: 'osc.udp://127.0.0.1:55693/'         
	 Address: '/muse/version'         
	 Types: 's '         
	 Payload: '['{"hardware_version":"16.0.0","firmware_headset_version":"7.2.7","firmware_bootloader_version":"7.2.7","firmware_type":"Research","build_number":41,"protocol_version":2}\n']'
/muse/acc 300.781708 847.657593 437.500671
/muse/drlref 1629032.250000 1641935.500000
/muse/acc 300.781708 847.657593 441.406952
/muse/acc 300.781708 851.563843 445.313202
/muse/eeg 901.449219 832.360046 837.294983 884.999451
Unknown message         
	 Source: 'osc.udp://127.0.0.1:55693/'         
	 Address: '/muse/eeg/quantization'         
	 Types: 'iiii '         
	 Payload: '[1, 1, 1, 1]'
/muse/eeg 901.449219 801.105408 814.265259 888.289368
/muse/eeg 884.999451 791.235535 824.135132 873.484558
/muse/eeg 876.774536 797.815491 840.584961 863.614685
/muse/eeg 889.934387 804.395386 830.715088 871.839600
/muse/eeg 901.449219 801.105408 819.200195 884.999451
/muse/eeg 893.224304 791.235535 830.715088 880.064453
/muse/eeg 876.774536 824.135132 858.679749 868.549622
/muse/eeg 871.839600 819.200195 843.874939 863.614685
/muse/elements/alpha_relative 0.169222 0.081989 0.044520 0.055563
/muse/elements/beta_relative 0.399756 0.415405 0.577838 0.460777
/muse/elements/delta_relative 0.080827 0.090914 0.034806 0.100288
/muse/elements/gamma_relative 0.201542 0.371740 0.306908 0.262854
/muse/elements/theta_relative 0.148653 0.039952 0.035928 0.120518
/muse/elements/horseshoe 1.000000 1.000000 1.000000 1.000000
/muse/elements/is_good 1 1 1 1
/muse/elements/blink [1]
/muse/elements/jaw_clench [0]
/muse/elements/touching_forehead [1]
/muse/elements/experimental/concentration [0.3195541501045227]
/muse/elements/experimental/mellow [0.0]
/muse/elements/low_freqs_absolute 0.851777 0.650226 0.477843 0.813141
/muse/elements/alpha_absolute 0.719490 0.447154 0.276772 0.213918
/muse/elements/beta_absolute 1.092829 1.151870 1.390021 1.132621
/muse/elements/delta_absolute 0.398590 0.492030 0.169868 0.470380
/muse/elements/gamma_absolute 0.795400 1.103637 1.115222 0.888845
/muse/elements/theta_absolute 0.663206 0.134939 0.183649 0.550182
/muse/eeg 875.129517 802.750427 845.519897 866.904663
/muse/eeg 891.579346 799.460449 843.874939 876.774536
/muse/eeg 886.644409 827.425110 840.584961 873.484558
/muse/eeg 873.484558 812.620300 837.294983 858.679749
/muse/eeg 886.644409 794.525513 845.519897 873.484558
/muse/eeg 894.869324 814.265259 832.360046 880.064453
/muse/eeg 901.449219 810.975281 835.650024 881.709473
/muse/acc 296.875458 855.470093 441.406952
/muse/acc 296.875458 851.563843 437.500671
/muse/acc 296.875458 847.657593 433.594421
/muse/drlref 1625806.500000 1641935.500000
/muse/acc 300.781708 843.751343 433.594421
/muse/eeg 894.869324 815.910278 850.454834 876.774536
Unknown message         
	 Source: 'osc.udp://127.0.0.1:55693/'         
	 Address: '/muse/eeg/quantization'         
	 Types: 'iiii '         
	 Payload: '[1, 1, 1, 1]'
/muse/eeg 886.644409 815.910278 827.425110 863.614685
/muse/eeg 883.354431 807.685364 814.265259 861.969727
/muse/eeg 881.709473 797.815491 824.135132 861.969727
/muse/eeg 883.354431 830.715088 829.070068 861.969727
/muse/eeg 894.869324 829.070068 835.650024 866.904663
/muse/eeg 896.514282 791.235535 835.650024 865.259644
/muse/eeg 894.869324 794.525513 847.164856 870.194580
/muse/eeg 891.579346 835.650024 847.164856 871.839600
/muse/eeg 888.289368 822.490173 848.809875 868.549622
/muse/eeg 880.064453 792.880554 837.294983 860.324707
/muse/eeg 880.064453 781.365662 810.975281 853.744812
/muse/eeg 893.224304 806.040344 838.940002 866.904663
/muse/eeg 886.644409 832.360046 837.294983 860.324707
/muse/eeg 894.869324 832.360046 832.360046 870.194580
/muse/elements/alpha_relative 0.170652 0.083913 0.045247 0.056177
/muse/elements/beta_relative 0.393451 0.398966 0.566076 0.449219
/muse/elements/delta_relative 0.086400 0.096260 0.037626 0.105847
/muse/elements/gamma_relative 0.199668 0.379572 0.313139 0.263683
/muse/elements/theta_relative 0.149829 0.041289 0.037911 0.125073
/muse/elements/horseshoe 1.000000 1.000000 1.000000 1.000000
/muse/elements/is_good 1 1 1 1
/muse/elements/blink [1]
/muse/elements/jaw_clench [0]
/muse/elements/touching_forehead [1]
/muse/elements/experimental/concentration [0.3305460810661316]
/muse/elements/experimental/mellow [0.0]
/muse/elements/low_freqs_absolute 0.860712 0.661784 0.508924 0.826860
/muse/elements/alpha_absolute 0.719490 0.447154 0.286354 0.212957
/muse/elements/beta_absolute 1.082270 1.124262 1.383636 1.115857
/muse/elements/delta_absolute 0.423892 0.506773 0.206255 0.488076
/muse/elements/gamma_absolute 0.787687 1.102621 1.126498 0.884482
/muse/elements/theta_absolute 0.662974 0.139161 0.209526 0.560564
/muse/eeg 876.774536 812.620300 829.070068 858.679749
/muse/eeg 880.064453 779.720703 830.715088 855.389771
/muse/acc 296.875458 843.751343 433.594421
/muse/acc 296.875458 843.751343 433.594421
/muse/acc 296.875458 843.751343 433.594421
/muse/acc 300.781708 843.751343 437.500671
/muse/eeg 871.839600 815.910278 830.715088 855.389771
Unknown message         
	 Source: 'osc.udp://127.0.0.1:55693/'         
	 Address: '/muse/eeg/quantization'         
	 Types: 'iiii '         
	 Payload: '[1, 1, 1, 1]'
/muse/eeg 868.549622 814.265259 834.005005 848.809875
/muse/eeg 873.484558 792.880554 822.490173 852.099792
/muse/eeg 871.839600 809.330322 840.584961 858.679749
/muse/eeg 870.194580 815.910278 837.294983 848.809875
/muse/eeg 866.904663 848.809875 827.425110 845.519897
/muse/eeg 873.484558 827.425110 852.099792 848.809875
/muse/eeg 876.774536 815.910278 842.229919 850.454834
/muse/eeg 868.549622 799.460449 834.005005 850.454834
/muse/eeg 850.454834 806.040344 838.940002 840.584961
/muse/eeg 857.034729 801.105408 822.490173 843.874939
/muse/eeg 875.129517 791.235535 830.715088 853.744812
/muse/eeg 863.614685 807.685364 835.650024 843.874939
/muse/eeg 858.679749 825.780151 820.845215 842.229919
/muse/eeg 860.324707 853.744812 832.360046 840.584961
/muse/eeg 858.679749 825.780151 843.874939 845.519897
/muse/acc 304.687988 843.751343 437.500671
/muse/drlref 1629032.250000 1645161.250000
/muse/acc 304.687988 847.657593 437.500671
/muse/acc 300.781708 847.657593 437.500671
/muse/eeg 848.809875 806.040344 848.809875 834.005005
Unknown message         
	 Source: 'osc.udp://127.0.0.1:55693/'         
	 Address: '/muse/eeg/quantization'         
	 Types: 'iiii '         
	 Payload: '[1, 1, 1, 1]'
/muse/eeg 858.679749 784.655640 840.584961 842.229919
/muse/eeg 861.969727 809.330322 835.650024 842.229919
/muse/eeg 861.969727 820.845215 822.490173 843.874939
/muse/elements/alpha_relative 0.175387 0.084985 0.046987 0.057656
/muse/elements/beta_relative 0.388049 0.379045 0.555839 0.439978
/muse/elements/delta_relative 0.091737 0.100959 0.039250 0.111396
/muse/elements/gamma_relative 0.195463 0.392902 0.318494 0.262616
/muse/elements/theta_relative 0.149364 0.042109 0.039430 0.128354
/muse/elements/horseshoe 1.000000 1.000000 1.000000 1.000000
/muse/elements/is_good 1 1 1 1
/muse/elements/blink [0]
/muse/elements/jaw_clench [0]
/muse/elements/touching_forehead [1]
/muse/elements/experimental/concentration [0.34079381823539734]
/muse/elements/experimental/mellow [0.0]
/muse/elements/low_freqs_absolute 0.857690 0.660805 0.525397 0.829591
/muse/elements/alpha_absolute 0.719490 0.434604 0.301507 0.210680
/muse/elements/beta_absolute 1.064378 1.083952 1.374481 1.093263
/muse/elements/delta_absolute 0.438035 0.509407 0.223372 0.496702
/muse/elements/gamma_absolute 0.766555 1.099545 1.132632 0.869154
/muse/elements/theta_absolute 0.649737 0.129639 0.225359 0.558241
/muse/eeg 857.034729 819.200195 817.555237 842.229919
/muse/eeg 863.614685 825.780151 834.005005 843.874939
/muse/eeg 866.904663 819.200195 824.135132 845.519897
/muse/eeg 853.744812 802.750427 832.360046 830.715088
/muse/eeg 848.809875 810.975281 847.164856 824.135132
/muse/eeg 861.969727 820.845215 830.715088 834.005005
/muse/eeg 875.129517 819.200195 860.324707 850.454834
/muse/eeg 852.099792 835.650024 840.584961 829.070068
/muse/eeg 858.679749 827.425110 809.330322 835.650024
/muse/eeg 858.679749 817.555237 806.040344 840.584961
/muse/eeg 870.194580 797.815491 832.360046 848.809875
/muse/eeg 870.194580 807.685364 855.389771 852.099792
/muse/acc 304.687988 843.751343 437.500671
/muse/acc 304.687988 847.657593 441.406952
/muse/acc 304.687988 847.657593 441.406952
/muse/drlref 1625806.500000 1641935.500000
/muse/acc 300.781708 847.657593 441.406952
/muse/eeg 850.454834 822.490173 827.425110 832.360046
Unknown message         
	 Source: 'osc.udp://127.0.0.1:55693/'         
	 Address: '/muse/eeg/quantization'         
	 Types: 'iiii '         
	 Payload: '[1, 1, 1, 1]'
/muse/eeg 853.744812 812.620300 838.940002 829.070068
/muse/eeg 850.454834 820.845215 814.265259 829.070068
/muse/eeg 850.454834 791.235535 815.910278 827.425110
/muse/eeg 852.099792 807.685364 857.034729 832.360046
/muse/eeg 855.389771 835.650024 838.940002 837.294983
/muse/eeg 861.969727 834.005005 843.874939 845.519897
/muse/eeg 868.549622 815.910278 853.744812 857.034729
/muse/eeg 838.940002 809.330322 838.940002 827.425110
/muse/eeg 832.360046 789.590576 835.650024 817.555237
/muse/elements/alpha_relative 0.183167 0.092603 0.050231 0.060309
/muse/elements/beta_relative 0.385151 0.354483 0.546004 0.437020
/muse/elements/delta_relative 0.096146 0.105002 0.040329 0.115712
/muse/elements/gamma_relative 0.188576 0.405505 0.322643 0.259198
/muse/elements/theta_relative 0.146960 0.042408 0.040792 0.127762
/muse/elements/horseshoe 1.000000 1.000000 1.000000 1.000000
/muse/elements/is_good 1 1 1 1
/muse/elements/blink [0]
/muse/elements/jaw_clench [0]
/muse/elements/touching_forehead [1]
/muse/elements/experimental/concentration [0.34079381823539734]
/muse/elements/experimental/mellow [0.0]
/muse/elements/low_freqs_absolute 0.842438 0.653614 0.534537 0.816751
/muse/elements/alpha_absolute 0.719490 0.451715 0.326379 0.210680
/muse/elements/beta_absolute 1.042274 1.034685 1.362600 1.070800
/muse/elements/delta_absolute 0.439575 0.506285 0.231024 0.493678
/muse/elements/gamma_absolute 0.732128 1.093085 1.134126 0.843930
/muse/elements/theta_absolute 0.623841 0.112534 0.235975 0.536700
/muse/eeg 835.650024 786.300598 832.360046 825.780151
/muse/eeg 843.874939 802.750427 817.555237 829.070068
/muse/eeg 853.744812 794.525513 825.780151 842.229919
/muse/eeg 834.005005 810.975281 843.874939 825.780151
/muse/eeg 848.809875 812.620300 827.425110 837.294983
/muse/eeg 860.324707 837.294983 857.034729 847.164856
/muse/acc 300.781708 847.657593 441.406952
/muse/acc 300.781708 843.751343 437.500671
/muse/acc 300.781708 843.751343 441.406952
/muse/eeg 853.744812 806.040344 842.229919 838.940002
Unknown message         
	 Source: 'osc.udp://127.0.0.1:55693/'         
	 Address: '/muse/eeg/quantization'         
	 Types: 'iiii '         
	 Payload: '[1, 1, 1, 1]'
/muse/eeg 848.809875 802.750427 824.135132 842.229919
/muse/eeg 830.715088 802.750427 824.135132 819.200195
/muse/eeg 837.294983 779.720703 807.685364 822.490173
/muse/eeg 852.099792 822.490173 827.425110 835.650024
/muse/eeg 852.099792 814.265259 832.360046 834.005005
/muse/eeg 861.969727 799.460449 842.229919 843.874939
/muse/eeg 847.164856 804.395386 845.519897 827.425110
/muse/eeg 855.389771 822.490173 840.584961 834.005005
/muse/eeg 843.874939 796.170471 847.164856 829.070068
/muse/eeg 829.070068 814.265259 827.425110 804.395386
/muse/eeg 860.324707 832.360046 827.425110 835.650024
/muse/eeg 853.744812 827.425110 817.555237 832.360046
/muse/eeg 857.034729 825.780151 830.715088 835.650024
/muse/eeg 865.259644 796.170471 820.845215 847.164856
/muse/eeg 848.809875 799.460449 810.975281 830.715088
/muse/elements/alpha_relative 0.179524 0.100746 0.050359 0.061631
/muse/elements/beta_relative 0.389647 0.332809 0.539224 0.441296
/muse/elements/delta_relative 0.101048 0.108995 0.041747 0.117894
/muse/elements/gamma_relative 0.182457 0.414534 0.326319 0.255214
/muse/elements/theta_relative 0.147324 0.042916 0.042350 0.123964
/muse/elements/horseshoe 1.000000 1.000000 1.000000 1.000000
/muse/elements/is_good 1 1 1 1
/muse/elements/blink [0]
/muse/elements/jaw_clench [0]
/muse/elements/touching_forehead [1]
/muse/elements/experimental/concentration [0.34079381823539734]
/muse/elements/experimental/mellow [0.0]
/muse/elements/low_freqs_absolute 0.823809 0.646292 0.541120 0.791215
/muse/elements/alpha_absolute 0.682827 0.467932 0.318412 0.197453
/muse/elements/beta_absolute 1.019376 0.986897 1.348105 1.052383
/muse/elements/delta_absolute 0.433233 0.502109 0.236965 0.479146
/muse/elements/gamma_absolute 0.689865 1.082262 1.129979 0.814558
/muse/elements/theta_absolute 0.596980 0.097323 0.243193 0.500950
/muse/acc 300.781708 843.751343 437.500671
/muse/acc 300.781708 843.751343 437.500671
/muse/drlref 1625806.500000 1645161.250000
/muse/acc 300.781708 843.751343 441.406952
/muse/acc 304.687988 843.751343 441.406952
/muse/eeg 840.584961 774.785767 827.425110 829.070068
Unknown message         
	 Source: 'osc.udp://127.0.0.1:55693/'         
	 Address: '/muse/eeg/quantization'         
	 Types: 'iiii '         
	 Payload: '[1, 1, 1, 1]'
/muse/eeg 845.519897 815.910278 838.940002 832.360046
/muse/eeg 858.679749 797.815491 855.389771 843.874939
/muse/eeg 850.454834 787.945557 868.549622 834.005005
/muse/eeg 845.519897 824.135132 842.229919 832.360046
/muse/eeg 857.034729 845.519897 829.070068 843.874939
/muse/eeg 858.679749 819.200195 815.910278 840.584961
/muse/eeg 853.744812 817.555237 829.070068 834.005005
/muse/eeg 848.809875 817.555237 824.135132 834.005005
/muse/eeg 845.519897 796.170471 784.655640 819.200195
/muse/eeg 850.454834 814.265259 815.910278 824.135132
/muse/eeg 843.874939 801.105408 835.650024 827.425110
/muse/eeg 838.940002 812.620300 834.005005 812.620300
/muse/eeg 857.034729 814.265259 842.229919 834.005005
/muse/eeg 855.389771 814.265259 835.650024 830.715088
/muse/eeg 847.164856 791.235535 810.975281 822.490173
/muse/acc 300.781708 847.657593 441.406952
/muse/acc 300.781708 847.657593 441.406952
/muse/acc 300.781708 843.751343 441.406952
/muse/drlref 1629032.250000 1641935.500000
/muse/acc 300.781708 843.751343 441.406952
/muse/eeg 835.650024 792.880554 834.005005 817.555237
Unknown message         
	 Source: 'osc.udp://127.0.0.1:55693/'         
	 Address: '/muse/eeg/quantization'         
	 Types: 'iiii '         
	 Payload: '[1, 1, 1, 1]'
/muse/eeg 829.070068 819.200195 834.005005 814.265259
/muse/eeg 825.780151 797.815491 817.555237 812.620300
/muse/eeg 843.874939 814.265259 830.715088 827.425110
/muse/eeg 855.389771 814.265259 815.910278 842.229919
/muse/eeg 852.099792 817.555237 820.845215 838.940002
/muse/elements/alpha_relative 0.144892 0.105674 0.051087 0.061902
/muse/elements/beta_relative 0.407131 0.320787 0.533677 0.448689
/muse/elements/delta_relative 0.110190 0.112995 0.043394 0.118172
/muse/elements/gamma_relative 0.183220 0.416943 0.327881 0.253443
/muse/elements/theta_relative 0.154567 0.043601 0.043960 0.117795
/muse/elements/horseshoe 1.000000 1.000000 1.000000 1.000000
/muse/elements/is_good 1 1 1 1
/muse/elements/blink [0]
/muse/elements/jaw_clench [0]
/muse/elements/touching_forehead [1]
/muse/elements/experimental/concentration [0.32974234223365784]
/muse/elements/experimental/mellow [0.0]
/muse/elements/low_freqs_absolute 0.810294 0.642276 0.544476 0.758789
/muse/elements/alpha_absolute 0.548492 0.471466 0.311503 0.177640
/muse/elements/beta_absolute 0.997181 0.953713 1.330468 1.037884
/muse/elements/delta_absolute 0.429589 0.500556 0.240623 0.458452
/muse/elements/gamma_absolute 0.650419 1.067574 1.118906 0.789818
/muse/elements/theta_absolute 0.576563 0.086988 0.246251 0.457065
/muse/eeg 848.809875 838.940002 840.584961 825.780151
/muse/eeg 852.099792 787.945557 834.005005 830.715088
/muse/eeg 845.519897 784.655640 832.360046 817.555237
/muse/eeg 834.005005 827.425110 832.360046 809.330322
/muse/eeg 832.360046 814.265259 820.845215 815.910278
/muse/eeg 834.005005 806.040344 820.845215 812.620300
/muse/eeg 840.584961 809.330322 832.360046 819.200195
/muse/eeg 845.519897 789.590576 815.910278 824.135132
/muse/eeg 840.584961 817.555237 825.780151 819.200195
/muse/eeg 855.389771 832.360046 847.164856 834.005005
/muse/acc 296.875458 847.657593 437.500671
/muse/acc 296.875458 843.751343 437.500671
/muse/acc 296.875458 843.751343 437.500671
/muse/eeg 843.874939 825.780151 840.584961 820.845215
Unknown message         
	 Source: 'osc.udp://127.0.0.1:55693/'         
	 Address: '/muse/eeg/quantization'         
	 Types: 'iiii '         
	 Payload: '[1, 1, 1, 1]'
/muse/eeg 825.780151 784.655640 825.780151 807.685364
/muse/eeg 825.780151 812.620300 837.294983 812.620300
/muse/eeg 835.650024 802.750427 822.490173 822.490173
/muse/eeg 838.940002 802.750427 827.425110 827.425110
/muse/eeg 830.715088 802.750427 842.229919 814.265259
/muse/eeg 842.229919 797.815491 837.294983 824.135132
/muse/eeg 852.099792 842.229919 843.874939 829.070068
/muse/eeg 855.389771 834.005005 819.200195 832.360046
/muse/eeg 845.519897 825.780151 797.815491 824.135132
/muse/eeg 829.070068 799.460449 806.040344 810.975281
/muse/eeg 820.845215 801.105408 810.975281 804.395386
/muse/elements/alpha_relative 0.120473 0.105098 0.053146 0.063965
/muse/elements/beta_relative 0.414087 0.321906 0.528772 0.451620
/muse/elements/delta_relative 0.118327 0.115603 0.044794 0.115694
/muse/elements/gamma_relative 0.186115 0.413268 0.327610 0.256829
/muse/elements/theta_relative 0.160998 0.044125 0.045678 0.111891
/muse/elements/horseshoe 1.000000 1.000000 1.000000 1.000000
/muse/elements/is_good 1 1 1 1
/muse/elements/blink [0]
/muse/elements/jaw_clench [0]
/muse/elements/touching_forehead [1]
/muse/elements/experimental/concentration [0.31769317388534546]
/muse/elements/experimental/mellow [0.0]
/muse/elements/low_freqs_absolute 0.803580 0.639122 0.542544 0.725400
/muse/elements/alpha_absolute 0.438362 0.457335 0.311503 0.174199
/muse/elements/beta_absolute 0.974562 0.943470 1.309300 1.023030
/muse/elements/delta_absolute 0.430554 0.498710 0.237250 0.431567
/muse/elements/gamma_absolute 0.627253 1.051972 1.101388 0.777901
/muse/elements/theta_absolute 0.564290 0.080426 0.245736 0.417052
/muse/eeg 838.940002 807.685364 861.969727 827.425110
/muse/eeg 845.519897 819.200195 853.744812 822.490173
/muse/eeg 843.874939 799.460449 853.744812 822.490173
/muse/eeg 840.584961 801.105408 842.229919 822.490173
/muse/acc 300.781708 847.657593 437.500671
/muse/drlref 1625806.500000 1641935.500000
/muse/acc 300.781708 847.657593 441.406952
/muse/acc 300.781708 843.751343 441.406952
/muse/acc 300.781708 843.751343 441.406952
/muse/eeg 850.454834 842.229919 865.259644 835.650024
Unknown message         
	 Source: 'osc.udp://127.0.0.1:55693/'         
	 Address: '/muse/eeg/quantization'         
	 Types: 'iiii '         
	 Payload: '[1, 1, 1, 1]'
/muse/eeg 840.584961 807.685364 827.425110 832.360046
/muse/eeg 827.425110 801.105408 804.395386 814.265259
/muse/eeg 834.005005 787.945557 822.490173 827.425110
/muse/eeg 810.975281 774.785767 807.685364 806.040344
/muse/eeg 825.780151 801.105408 866.904663 814.265259
/muse/eeg 835.650024 810.975281 863.614685 820.845215
/muse/eeg 827.425110 799.460449 834.005005 817.555237
/muse/eeg 822.490173 812.620300 827.425110 812.620300
/muse/eeg 824.135132 810.975281 838.940002 807.685364
/muse/eeg 825.780151 801.105408 837.294983 807.685364
/muse/eeg 822.490173 783.010620 832.360046 802.750427
/muse/eeg 838.940002 779.720703 835.650024 819.200195
/muse/eeg 852.099792 812.620300 843.874939 824.135132
/muse/eeg 857.034729 802.750427 852.099792 825.780151
/muse/eeg 845.519897 807.685364 865.259644 829.070068
/muse/eeg 850.454834 807.685364 838.940002 835.650024
/muse/acc 300.781708 843.751343 441.406952
/muse/acc 296.875458 843.751343 441.406952
/muse/acc 300.781708 843.751343 441.406952
/muse/drlref 1625806.500000 1641935.500000
/muse/acc 296.875458 847.657593 441.406952
/muse/eeg 840.584961 806.040344 804.395386 838.940002
/muse/elements/alpha_relative 0.102806 0.103151 0.055615 0.063547
/muse/elements/beta_relative 0.411362 0.332465 0.524713 0.448003
/muse/elements/delta_relative 0.125805 0.115388 0.045583 0.111505
/muse/elements/gamma_relative 0.195468 0.404900 0.326552 0.267902
/muse/elements/theta_relative 0.164559 0.044096 0.047537 0.109044
/muse/elements/horseshoe 1.000000 1.000000 1.000000 1.000000
/muse/elements/is_good 1 1 1 1
/muse/elements/blink [0]
/muse/elements/jaw_clench [0]
/muse/elements/touching_forehead [1]
/muse/elements/experimental/concentration [0.3056440055370331]
/muse/elements/experimental/mellow [0.0]
/muse/elements/low_freqs_absolute 0.798753 0.634862 0.535353 0.695262
/muse/elements/alpha_absolute 0.347830 0.445619 0.311503 0.154853
/muse/elements/beta_absolute 0.950034 0.953892 1.286232 1.003039
/muse/elements/delta_absolute 0.435506 0.494307 0.225109 0.399051
/muse/elements/gamma_absolute 0.626885 1.039494 1.080261 0.779733
/muse/elements/theta_absolute 0.552133 0.076542 0.243345 0.389358
Unknown message         
	 Source: 'osc.udp://127.0.0.1:55693/'         
	 Address: '/muse/eeg/quantization'         
	 Types: 'iiii '         
	 Payload: '[1, 1, 1, 1]'
/muse/eeg 840.584961 814.265259 824.135132 838.940002
/muse/eeg 835.650024 796.170471 832.360046 835.650024
/muse/eeg 845.519897 801.105408 850.454834 842.229919
/muse/eeg 838.940002 786.300598 865.259644 835.650024
/muse/eeg 832.360046 810.975281 847.164856 822.490173
/muse/eeg 838.940002 817.555237 834.005005 827.425110
/muse/eeg 847.164856 810.975281 840.584961 834.005005
/muse/eeg 845.519897 791.235535 820.845215 822.490173
/muse/eeg 843.874939 834.005005 835.650024 825.780151
/muse/eeg 850.454834 825.780151 840.584961 829.070068
/muse/eeg 860.324707 797.815491 827.425110 847.164856
/muse/eeg 852.099792 784.655640 840.584961 842.229919
/muse/eeg 845.519897 794.525513 858.679749 837.294983
/muse/eeg 847.164856 819.200195 850.454834 840.584961
/muse/eeg 837.294983 837.294983 814.265259 829.070068
/muse/acc 300.781708 839.845093 441.406952
/muse/acc 300.781708 839.845093 441.406952
/muse/acc 300.781708 839.845093 445.313202
/muse/eeg 843.874939 827.425110 822.490173 835.650024
Unknown message         
	 Source: 'osc.udp://127.0.0.1:55693/'         
	 Address: '/muse/eeg/quantization'         
	 Types: 'iiii '         
	 Payload: '[1, 1, 1, 1]'
/muse/eeg 852.099792 787.945557 840.584961 843.874939
/muse/eeg 843.874939 820.845215 843.874939 830.715088
/muse/eeg 842.229919 789.590576 829.070068 827.425110
/muse/eeg 820.845215 796.170471 837.294983 806.040344
/muse/eeg 832.360046 812.620300 843.874939 819.200195
/muse/eeg 837.294983 820.845215 843.874939 822.490173
/muse/elements/alpha_relative 0.090402 0.096817 0.058005 0.062107
/muse/elements/beta_relative 0.402300 0.348464 0.521868 0.436507
/muse/elements/delta_relative 0.132968 0.113304 0.045878 0.108090
/muse/elements/gamma_relative 0.211205 0.397703 0.325116 0.283808
/muse/elements/theta_relative 0.163125 0.043712 0.049132 0.109489
/muse/elements/horseshoe 1.000000 1.000000 1.000000 1.000000
/muse/elements/is_good 1 1 1 1
/muse/elements/blink [0]
/muse/elements/jaw_clench [0]
/muse/elements/touching_forehead [1]
/muse/elements/experimental/concentration [0.2943469285964966]
/muse/elements/experimental/mellow [0.0]
/muse/elements/low_freqs_absolute 0.790302 0.629171 0.525810 0.673220
/muse/elements/alpha_absolute 0.275050 0.419176 0.311503 0.128744
/muse/elements/beta_absolute 0.923424 0.975385 1.265598 0.975594
/muse/elements/delta_absolute 0.442620 0.487472 0.209643 0.369389
/muse/elements/gamma_absolute 0.643578 1.032785 1.060076 0.788628
/muse/elements/theta_absolute 0.531395 0.073830 0.239406 0.374973
/muse/eeg 842.229919 843.874939 850.454834 824.135132
/muse/eeg 837.294983 815.910278 835.650024 824.135132
/muse/eeg 842.229919 814.265259 824.135132 827.425110
/muse/eeg 852.099792 806.040344 829.070068 835.650024
/muse/eeg 838.940002 830.715088 832.360046 824.135132
/muse/eeg 845.519897 819.200195 824.135132 822.490173
/muse/eeg 837.294983 807.685364 848.809875 810.975281
/muse/eeg 838.940002 781.365662 847.164856 822.490173
/muse/eeg 840.584961 791.235535 817.555237 832.360046
/muse/acc 300.781708 839.845093 449.219452
/muse/drlref 1625806.500000 1641935.500000
/muse/acc 296.875458 847.657593 449.219452
/muse/acc 292.969208 847.657593 449.219452
/muse/acc 292.969208 847.657593 445.313202
/muse/eeg 834.005005 822.490173 822.490173 810.975281
Unknown message         
	 Source: 'osc.udp://127.0.0.1:55693/'         
	 Address: '/muse/eeg/quantization'         
	 Types: 'iiii '         
	 Payload: '[1, 1, 1, 1]'
/muse/eeg 843.874939 830.715088 843.874939 820.845215
/muse/eeg 838.940002 830.715088 830.715088 815.910278
/muse/eeg 847.164856 809.330322 819.200195 827.425110
/muse/eeg 860.324707 822.490173 835.650024 838.940002
/muse/eeg 840.584961 810.975281 830.715088 814.265259
/muse/eeg 850.454834 812.620300 865.259644 819.200195
/muse/eeg 850.454834 824.135132 848.809875 820.845215
/muse/eeg 842.229919 804.395386 835.650024 815.910278
/muse/eeg 858.679749 820.845215 843.874939 830.715088
/muse/eeg 847.164856 812.620300 812.620300 825.780151
/muse/eeg 847.164856 797.815491 812.620300 827.425110
/muse/eeg 861.969727 802.750427 827.425110 845.519897
/muse/elements/alpha_relative 0.084546 0.085199 0.059658 0.062732
/muse/elements/beta_relative 0.388588 0.366106 0.521370 0.415813
/muse/elements/delta_relative 0.142249 0.110840 0.046526 0.108836
/muse/elements/gamma_relative 0.230461 0.394189 0.322815 0.300310
/muse/elements/theta_relative 0.154157 0.043666 0.049630 0.112309
/muse/elements/horseshoe 1.000000 1.000000 1.000000 1.000000
/muse/elements/is_good 1 1 1 1
/muse/elements/blink [0]
/muse/elements/jaw_clench [0]
/muse/elements/touching_forehead [1]
/muse/elements/experimental/concentration [0.28380200266838074]
/muse/elements/experimental/mellow [0.0]
/muse/elements/low_freqs_absolute 0.776333 0.624073 0.518812 0.665201
/muse/elements/alpha_absolute 0.231537 0.365560 0.311503 0.118010
/muse/elements/beta_absolute 0.893936 0.998734 1.252979 0.939421
/muse/elements/delta_absolute 0.457495 0.479825 0.203532 0.357297
/muse/elements/gamma_absolute 0.667044 1.030832 1.044786 0.798092
/muse/elements/theta_absolute 0.492409 0.075269 0.231579 0.370939
/muse/eeg 837.294983 809.330322 829.070068 820.845215
/muse/eeg 832.360046 815.910278 860.324707 810.975281
/muse/eeg 842.229919 824.135132 852.099792 822.490173
/muse/acc 296.875458 843.751343 441.406952
/muse/acc 296.875458 839.845093 441.406952
Unknown message         
	 Source: 'osc.udp://127.0.0.1:55693/'         
	 Address: '/muse/config'         
	 Types: 's '         
	 Payload: '['{"mac_addr":"000666A069D0","serial_number":"1160-UJMN-69D0","preset":"14","filters_enabled":true,"notch_frequency_hz":60,"battery_data_enabled":true,"compression_enabled":true,"eeg_sample_frequency_hz":3520,"eeg_output_frequency_hz":220,"eeg_channel_count":4,"eeg_samples_bitwidth":10,"eeg_channel_layout":"TP9 FP1 FP2 TP10 ","eeg_downsample":16,"afe_gain":1961,"battery_percent_remaining":38,"battery_millivolts":3729,"eeg_units":"EEG_MICROVOLTS","acc_units":"ACC_GFORCE","eeg_conversion_factor":1.644980342484907,"drlref_conversion_factor":3225.806451612903,"acc_conversion_factor":3.906256109482,"acc_sample_frequency_hz":50,"drlref_sample_frequency_hz":10,"acc_data_enabled":true,"drlref_data_enabled":true,"error_data_enabled":true}\n']'
Unknown message         
	 Source: 'osc.udp://127.0.0.1:55693/'         
	 Address: '/muse/version'         
	 Types: 's '         
	 Payload: '['{"hardware_version":"16.0.0","firmware_headset_version":"7.2.7","firmware_bootloader_version":"7.2.7","firmware_type":"Research","build_number":41,"protocol_version":2}\n']'
/muse/acc 296.875458 843.751343 441.406952
/muse/drlref 1629032.250000 1641935.500000
/muse/eeg 848.809875 807.685364 845.519897 829.070068
Unknown message         
	 Source: 'osc.udp://127.0.0.1:55693/'         
	 Address: '/muse/eeg/quantization'         
	 Types: 'iiii '         
	 Payload: '[1, 1, 1, 1]'
/muse/eeg 843.874939 827.425110 829.070068 829.070068
/muse/eeg 843.874939 819.200195 815.910278 829.070068
/muse/eeg 850.454834 814.265259 815.910278 837.294983
/muse/eeg 838.940002 809.330322 830.715088 825.780151
/muse/eeg 834.005005 789.590576 837.294983 824.135132
/muse/eeg 825.780151 822.490173 835.650024 810.975281
/muse/eeg 838.940002 825.780151 847.164856 817.555237
/muse/eeg 842.229919 815.910278 845.519897 827.425110
/muse/eeg 840.584961 784.655640 840.584961 832.360046
/muse/eeg 832.360046 824.135132 810.975281 819.200195
/muse/eeg 837.294983 835.650024 827.425110 814.265259
/muse/eeg 842.229919 829.070068 812.620300 824.135132
/muse/eeg 840.584961 804.395386 822.490173 822.490173
/muse/eeg 843.874939 769.850830 845.519897 834.005005
/muse/eeg 840.584961 815.910278 845.519897 827.425110
/muse/acc 296.875458 843.751343 441.406952
/muse/acc 300.781708 843.751343 441.406952
/muse/acc 304.687988 843.751343 445.313202
/muse/acc 304.687988 843.751343 445.313202
/muse/eeg 837.294983 820.845215 845.519897 825.780151
Unknown message         
	 Source: 'osc.udp://127.0.0.1:55693/'         
	 Address: '/muse/eeg/quantization'         
	 Types: 'iiii '         
	 Payload: '[1, 1, 1, 1]'
/muse/eeg 834.005005 810.975281 830.715088 820.845215
/muse/eeg 842.229919 825.780151 857.034729 827.425110
/muse/elements/alpha_relative 0.084546 0.081362 0.060339 0.062732
/muse/elements/beta_relative 0.388588 0.378381 0.523586 0.415813
/muse/elements/delta_relative 0.142249 0.108579 0.048148 0.108836
/muse/elements/gamma_relative 0.230461 0.387867 0.319411 0.300310
/muse/elements/theta_relative 0.154157 0.043810 0.048516 0.112309
/muse/elements/horseshoe 1.000000 1.000000 1.000000 1.000000
/muse/elements/is_good 0 1 1 0
/muse/elements/blink [0]
/muse/elements/jaw_clench [0]
/muse/elements/touching_forehead [1]
/muse/elements/experimental/concentration [0.2732570469379425]
/muse/elements/experimental/mellow [0.0]
/muse/elements/low_freqs_absolute 0.776333 0.624550 0.516166 0.665201
/muse/elements/alpha_absolute 0.231537 0.352021 0.311503 0.118010
/muse/elements/beta_absolute 0.893936 1.019527 1.249891 0.939421
/muse/elements/delta_absolute 0.457495 0.477343 0.213480 0.357297
/muse/elements/gamma_absolute 0.667044 1.030281 1.035253 0.798092
/muse/elements/theta_absolute 0.492409 0.083167 0.216785 0.370939
/muse/eeg 843.874939 825.780151 837.294983 835.650024
/muse/eeg 835.650024 807.685364 843.874939 825.780151
/muse/eeg 834.005005 825.780151 834.005005 819.200195
/muse/eeg 842.229919 796.170471 806.040344 820.845215
/muse/eeg 847.164856 810.975281 817.555237 832.360046
/muse/eeg 843.874939 814.265259 827.425110 825.780151
/muse/eeg 845.519897 810.975281 850.454834 825.780151
/muse/eeg 852.099792 830.715088 857.034729 829.070068
/muse/eeg 848.809875 812.620300 837.294983 827.425110
/muse/eeg 840.584961 847.164856 840.584961 822.490173
/muse/eeg 843.874939 815.910278 815.910278 829.070068
/muse/eeg 840.584961 802.750427 827.425110 832.360046
/muse/eeg 848.809875 796.170471 837.294983 838.940002
/muse/acc 296.875458 847.657593 441.406952
/muse/drlref 1629032.250000 1641935.500000
/muse/acc 300.781708 843.751343 445.313202
/muse/acc 300.781708 839.845093 445.313202
/muse/acc 300.781708 843.751343 445.313202
/muse/eeg 837.294983 809.330322 842.229919 820.845215
Unknown message         
	 Source: 'osc.udp://127.0.0.1:55693/'         
	 Address: '/muse/eeg/quantization'         
	 Types: 'iiii '         
	 Payload: '[1, 1, 1, 1]'
/muse/eeg 848.809875 829.070068 832.360046 827.425110
/muse/eeg 835.650024 817.555237 842.229919 820.845215
/muse/eeg 834.005005 792.880554 847.164856 819.200195
/muse/eeg 848.809875 796.170471 814.265259 835.650024
/muse/eeg 843.874939 837.294983 810.975281 830.715088
/muse/eeg 834.005005 827.425110 819.200195 817.555237
/muse/eeg 842.229919 814.265259 824.135132 825.780151
/muse/eeg 850.454834 819.200195 806.040344 829.070068
/muse/elements/alpha_relative 0.084546 0.079309 0.060492 0.062732
/muse/elements/beta_relative 0.388588 0.387536 0.527647 0.415813
/muse/elements/delta_relative 0.142249 0.108026 0.050779 0.108836
/muse/elements/gamma_relative 0.230461 0.381000 0.315673 0.300310
/muse/elements/theta_relative 0.154157 0.044129 0.045408 0.112309
/muse/elements/horseshoe 1.000000 1.000000 1.000000 1.000000
/muse/elements/is_good 0 1 1 0
/muse/elements/blink [0]
/muse/elements/jaw_clench [0]
/muse/elements/touching_forehead [1]
/muse/elements/experimental/concentration [0.2627120912075043]
/muse/elements/experimental/mellow [0.0]
/muse/elements/low_freqs_absolute 0.776333 0.630625 0.512923 0.665201
/muse/elements/alpha_absolute 0.231537 0.347660 0.311503 0.118010
/muse/elements/beta_absolute 0.893936 1.036650 1.252146 0.939421
/muse/elements/delta_absolute 0.457495 0.481867 0.235491 0.357297
/muse/elements/gamma_absolute 0.667044 1.029263 1.029040 0.798092
/muse/elements/theta_absolute 0.492409 0.093061 0.186939 0.370939
/muse/eeg 837.294983 817.555237 812.620300 812.620300
/muse/eeg 837.294983 848.809875 830.715088 815.910278
/muse/eeg 857.034729 834.005005 819.200195 834.005005
/muse/eeg 847.164856 806.040344 829.070068 825.780151
/muse/eeg 834.005005 819.200195 822.490173 810.975281
/muse/eeg 838.940002 835.650024 824.135132 814.265259
/muse/eeg 848.809875 820.845215 838.940002 824.135132
/muse/acc 296.875458 843.751343 445.313202
/muse/acc 296.875458 843.751343 445.313202
/muse/acc 300.781708 843.751343 445.313202
/muse/drlref 1629032.250000 1641935.500000
/muse/eeg 850.454834 812.620300 825.780151 829.070068
Unknown message         
	 Source: 'osc.udp://127.0.0.1:55693/'         
	 Address: '/muse/eeg/quantization'         
	 Types: 'iiii '         
	 Payload: '[1, 1, 1, 1]'
/muse/eeg 858.679749 796.170471 801.105408 834.005005
/muse/eeg 858.679749 830.715088 804.395386 825.780151
/muse/eeg 861.969727 837.294983 819.200195 825.780151
/muse/eeg 871.839600 819.200195 817.555237 842.229919
/muse/eeg 861.969727 804.395386 837.294983 835.650024
/muse/eeg 853.744812 797.815491 838.940002 829.070068
/muse/eeg 842.229919 834.005005 827.425110 817.555237
/muse/eeg 843.874939 819.200195 820.845215 815.910278
/muse/eeg 840.584961 822.490173 802.750427 814.265259
/muse/eeg 861.969727 812.620300 817.555237 838.940002
/muse/eeg 866.904663 822.490173 845.519897 837.294983
/muse/eeg 853.744812 825.780151 840.584961 827.425110
/muse/eeg 847.164856 829.070068 837.294983 825.780151
/muse/eeg 853.744812 817.555237 827.425110 835.650024
/muse/elements/alpha_relative 0.084546 0.078293 0.060809 0.062732
/muse/elements/beta_relative 0.388588 0.395371 0.533626 0.415813
/muse/elements/delta_relative 0.142249 0.107959 0.053252 0.108836
/muse/elements/gamma_relative 0.230461 0.374347 0.311866 0.300310
/muse/elements/theta_relative 0.154157 0.044030 0.040447 0.112309
/muse/elements/horseshoe 1.000000 1.000000 1.000000 1.000000
/muse/elements/is_good 0 1 1 0
/muse/elements/blink [0]
/muse/elements/jaw_clench [0]
/muse/elements/touching_forehead [1]
/muse/elements/experimental/concentration [0.2521671652793884]
/muse/elements/experimental/mellow [0.0]
/muse/elements/low_freqs_absolute 0.776333 0.635745 0.499265 0.665201
/muse/elements/alpha_absolute 0.231537 0.347660 0.311503 0.118010
/muse/elements/beta_absolute 0.893936 1.050939 1.254770 0.939421
/muse/elements/delta_absolute 0.457495 0.487193 0.253866 0.357297
/muse/elements/gamma_absolute 0.667044 1.027209 1.021501 0.798092
/muse/elements/theta_absolute 0.492409 0.097678 0.134417 0.370939
/muse/eeg 863.614685 792.880554 832.360046 843.874939
/muse/acc 296.875458 843.751343 441.406952
/muse/acc 296.875458 843.751343 441.406952
/muse/acc 296.875458 843.751343 445.313202
/muse/acc 296.875458 843.751343 445.313202
/muse/eeg 845.519897 774.785767 837.294983 825.780151
Unknown message         
	 Source: 'osc.udp://127.0.0.1:55693/'         
	 Address: '/muse/eeg/quantization'         
	 Types: 'iiii '         
	 Payload: '[1, 1, 1, 1]'
/muse/eeg 838.940002 815.910278 832.360046 819.200195
/muse/eeg 842.229919 837.294983 834.005005 824.135132
/muse/eeg 847.164856 837.294983 845.519897 829.070068
/muse/eeg 852.099792 817.555237 832.360046 837.294983
/muse/eeg 857.034729 827.425110 840.584961 832.360046
/muse/eeg 861.969727 815.910278 825.780151 829.070068
/muse/eeg 860.324707 801.105408 806.040344 837.294983
/muse/eeg 853.744812 817.555237 837.294983 829.070068
/muse/eeg 848.809875 825.780151 832.360046 819.200195
/muse/eeg 840.584961 812.620300 840.584961 814.265259
/muse/eeg 845.519897 824.135132 838.940002 819.200195
/muse/eeg 853.744812 801.105408 827.425110 834.005005
/muse/eeg 847.164856 802.750427 829.070068 824.135132
/muse/eeg 853.744812 827.425110 824.135132 825.780151
/muse/eeg 840.584961 817.555237 830.715088 815.910278
/muse/eeg 838.940002 794.525513 827.425110 812.620300
/muse/acc 296.875458 843.751343 445.313202
/muse/drlref 1629032.250000 1641935.500000
/muse/acc 296.875458 843.751343 445.313202
/muse/acc 292.969208 843.751343 445.313202
/muse/acc 292.969208 843.751343 445.313202
/muse/eeg 853.744812 809.330322 824.135132 832.360046
Unknown message         
	 Source: 'osc.udp://127.0.0.1:55693/'         
	 Address: '/muse/eeg/quantization'         
	 Types: 'iiii '         
	 Payload: '[1, 1, 1, 1]'
/muse/eeg 838.940002 824.135132 832.360046 817.555237
/muse/eeg 838.940002 819.200195 843.874939 814.265259
/muse/eeg 850.454834 806.040344 838.940002 825.780151
/muse/elements/alpha_relative 0.084546 0.075230 0.061591 0.062732
/muse/elements/beta_relative 0.388588 0.404151 0.542076 0.415813
/muse/elements/delta_relative 0.142249 0.106983 0.054282 0.108836
/muse/elements/gamma_relative 0.230461 0.370636 0.307568 0.300310
/muse/elements/theta_relative 0.154157 0.042999 0.034483 0.112309
/muse/elements/horseshoe 1.000000 1.000000 1.000000 1.000000
/muse/elements/is_good 0 1 1 0
/muse/elements/blink [0]
/muse/elements/jaw_clench [0]
/muse/elements/touching_forehead [1]
/muse/elements/experimental/concentration [0.2416222095489502]
/muse/elements/experimental/mellow [0.0]
/muse/elements/low_freqs_absolute 0.776333 0.632712 0.470225 0.665201
/muse/elements/alpha_absolute 0.231537 0.333063 0.311503 0.118010
/muse/elements/beta_absolute 0.893936 1.063216 1.256046 0.939421
/muse/elements/delta_absolute 0.457495 0.485987 0.256641 0.357297
/muse/elements/gamma_absolute 0.667044 1.025620 1.009927 0.798092
/muse/elements/theta_absolute 0.492409 0.090134 0.059586 0.370939
/muse/eeg 837.294983 814.265259 830.715088 815.910278
/muse/eeg 837.294983 820.845215 819.200195 819.200195
/muse/eeg 850.454834 809.330322 824.135132 830.715088
/muse/eeg 850.454834 820.845215 824.135132 832.360046
/muse/eeg 850.454834 814.265259 820.845215 829.070068
/muse/eeg 842.229919 829.070068 840.584961 822.490173
/muse/eeg 847.164856 825.780151 838.940002 822.490173
/muse/eeg 843.874939 819.200195 850.454834 820.845215
/muse/eeg 842.229919 796.170471 852.099792 819.200195
/muse/eeg 834.005005 794.525513 832.360046 815.910278
/muse/eeg 840.584961 822.490173 835.650024 817.555237
/muse/eeg 853.744812 809.330322 824.135132 829.070068
/muse/acc 292.969208 847.657593 445.313202
/muse/acc 296.875458 847.657593 445.313202
/muse/acc 296.875458 847.657593 445.313202
/muse/drlref 1629032.250000 1641935.500000
/muse/eeg 853.744812 822.490173 847.164856 827.425110
Unknown message         
	 Source: 'osc.udp://127.0.0.1:55693/'         
	 Address: '/muse/eeg/quantization'         
	 Types: 'iiii '         
	 Payload: '[1, 1, 1, 1]'
/muse/eeg 863.614685 822.490173 838.940002 835.650024
/muse/eeg 865.259644 848.809875 840.584961 834.005005
/muse/eeg 866.904663 830.715088 824.135132 840.584961
/muse/eeg 858.679749 819.200195 815.910278 838.940002
/muse/eeg 857.034729 812.620300 834.005005 829.070068
/muse/eeg 863.614685 822.490173 832.360046 837.294983
/muse/eeg 863.614685 835.650024 840.584961 837.294983
/muse/eeg 855.389771 807.685364 822.490173 829.070068
/muse/eeg 858.679749 812.620300 814.265259 837.294983
/muse/elements/alpha_relative 0.097936 0.070124 0.058004 0.091642
/muse/elements/beta_relative 0.437412 0.415121 0.555381 0.396765
/muse/elements/delta_relative 0.161422 0.104583 0.053987 0.210554
/muse/elements/gamma_relative 0.141357 0.369202 0.303384 0.141599
/muse/elements/theta_relative 0.161872 0.040969 0.029244 0.159439
/muse/elements/horseshoe 1.000000 1.000000 1.000000 1.000000
/muse/elements/is_good 1 1 1 1
/muse/elements/blink [0]
/muse/elements/jaw_clench [0]
/muse/elements/touching_forehead [1]
/muse/elements/experimental/concentration [0.22492220997810364]
/muse/elements/experimental/mellow [0.0]
/muse/elements/low_freqs_absolute 0.751605 0.619645 0.433734 0.816522
/muse/elements/alpha_absolute 0.232950 0.302495 0.276910 0.210423
/muse/elements/beta_absolute 0.882898 1.074801 1.258043 0.846861
/muse/elements/delta_absolute 0.449970 0.476087 0.245739 0.571692
/muse/elements/gamma_absolute 0.392326 1.023891 0.995445 0.399389
/muse/elements/theta_absolute 0.451179 0.069086 -0.020515 0.450923
/muse/eeg 863.614685 799.460449 829.070068 843.874939
/muse/eeg 853.744812 829.070068 827.425110 835.650024
/muse/eeg 857.034729 815.910278 834.005005 835.650024
/muse/eeg 861.969727 822.490173 848.809875 829.070068
/muse/eeg 848.809875 802.750427 837.294983 824.135132
/muse/eeg 842.229919 817.555237 830.715088 822.490173
/muse/acc 296.875458 843.751343 445.313202
/muse/acc 296.875458 843.751343 445.313202
/muse/acc 300.781708 847.657593 445.313202
/muse/acc 300.781708 843.751343 449.219452
/muse/eeg 842.229919 832.360046 824.135132 825.780151
Unknown message         
	 Source: 'osc.udp://127.0.0.1:55693/'         
	 Address: '/muse/eeg/quantization'         
	 Types: 'iiii '         
	 Payload: '[1, 1, 1, 1]'
/muse/eeg 852.099792 819.200195 812.620300 832.360046
/muse/eeg 853.744812 829.070068 822.490173 829.070068
/muse/eeg 852.099792 812.620300 825.780151 832.360046
/muse/eeg 868.549622 835.650024 840.584961 845.519897
/muse/eeg 860.324707 825.780151 857.034729 838.940002
/muse/eeg 860.324707 817.555237 857.034729 838.940002
/muse/eeg 857.034729 796.170471 847.164856 842.229919
/muse/eeg 842.229919 812.620300 824.135132 824.135132
/muse/eeg 847.164856 801.105408 812.620300 827.425110
/muse/eeg 845.519897 799.460449 812.620300 829.070068
/muse/eeg 855.389771 819.200195 835.650024 835.650024
/muse/eeg 858.679749 794.525513 842.229919 843.874939
/muse/eeg 852.099792 843.874939 843.874939 834.005005
/muse/eeg 857.034729 822.490173 820.845215 832.360046
/muse/eeg 857.034729 802.750427 819.200195 827.425110
/muse/elements/alpha_relative 0.103293 0.067777 0.052380 0.103556
/muse/elements/beta_relative 0.424270 0.426578 0.568789 0.383105
/muse/elements/delta_relative 0.157732 0.100930 0.053835 0.191705
/muse/elements/gamma_relative 0.142369 0.366381 0.298742 0.155426
/muse/elements/theta_relative 0.172336 0.038335 0.026255 0.166208
/muse/elements/horseshoe 1.000000 1.000000 1.000000 1.000000
/muse/elements/is_good 1 1 1 1
/muse/elements/blink [0]
/muse/elements/jaw_clench [0]
/muse/elements/touching_forehead [1]
/muse/elements/experimental/concentration [0.20822221040725708]
/muse/elements/experimental/mellow [0.0]
/muse/elements/low_freqs_absolute 0.737481 0.600575 0.410738 0.779689
/muse/elements/alpha_absolute 0.232950 0.287813 0.226327 0.241089
/muse/elements/beta_absolute 0.846519 1.086732 1.262114 0.809230
/muse/elements/delta_absolute 0.416797 0.460754 0.238226 0.508545
/muse/elements/gamma_absolute 0.372292 1.020666 0.982459 0.417437
/muse/elements/theta_absolute 0.455254 0.040326 -0.073632 0.446563
/muse/acc 296.875458 847.657593 441.406952
/muse/drlref 1629032.250000 1641935.500000
/muse/acc 292.969208 847.657593 437.500671
/muse/acc 292.969208 839.845093 441.406952
/muse/eeg 870.194580 806.040344 810.975281 837.294983
Unknown message         
	 Source: 'osc.udp://127.0.0.1:55693/'         
	 Address: '/muse/eeg/quantization'         
	 Types: 'iiii '         
	 Payload: '[1, 1, 1, 1]'
/muse/eeg 865.259644 819.200195 819.200195 830.715088
/muse/eeg 866.904663 801.105408 825.780151 837.294983
/muse/eeg 868.549622 820.845215 829.070068 837.294983
/muse/eeg 857.034729 814.265259 850.454834 827.425110
/muse/eeg 848.809875 809.330322 855.389771 825.780151
/muse/eeg 842.229919 830.715088 857.034729 825.780151
/muse/eeg 850.454834 812.620300 863.614685 840.584961
/muse/eeg 838.940002 806.040344 822.490173 832.360046
/muse/eeg 842.229919 799.460449 809.330322 835.650024
/muse/eeg 837.294983 830.715088 812.620300 827.425110
/muse/eeg 843.874939 814.265259 822.490173 830.715088
/muse/eeg 845.519897 820.845215 840.584961 829.070068
/muse/eeg 840.584961 796.170471 838.940002 822.490173
/muse/eeg 842.229919 807.685364 848.809875 819.200195
/muse/eeg 837.294983 824.135132 842.229919 812.620300
/muse/acc 296.875458 835.938782 445.313202
/muse/acc 296.875458 835.938782 449.219452
/muse/acc 296.875458 835.938782 449.219452
/muse/drlref 1629032.250000 1645161.250000
/muse/acc 292.969208 832.032532 453.125702
/muse/eeg 838.940002 814.265259 838.940002 819.200195
Unknown message         
	 Source: 'osc.udp://127.0.0.1:55693/'         
	 Address: '/muse/eeg/quantization'         
	 Types: 'iiii '         
	 Payload: '[1, 1, 1, 1]'
/muse/eeg 838.940002 817.555237 829.070068 817.555237
/muse/eeg 840.584961 792.880554 825.780151 819.200195
/muse/eeg 847.164856 797.815491 827.425110 824.135132
/muse/eeg 838.940002 804.395386 837.294983 824.135132
/muse/eeg 855.389771 819.200195 838.940002 834.005005
/muse/elements/alpha_relative 0.118864 0.067360 0.050933 0.116473
/muse/elements/beta_relative 0.407180 0.439258 0.574727 0.371420
/muse/elements/delta_relative 0.157945 0.096641 0.055327 0.174879
/muse/elements/gamma_relative 0.140810 0.360617 0.293014 0.167575
/muse/elements/theta_relative 0.175201 0.036124 0.025999 0.169653
/muse/elements/horseshoe 1.000000 1.000000 1.000000 1.000000
/muse/elements/is_good 1 1 1 1
/muse/elements/blink [0]
/muse/elements/jaw_clench [0]
/muse/elements/touching_forehead [1]
/muse/elements/experimental/concentration [0.19152221083641052]
/muse/elements/experimental/mellow [0.0]
/muse/elements/low_freqs_absolute 0.729342 0.579927 0.417844 0.738970
/muse/elements/alpha_absolute 0.281760 0.285244 0.214610 0.267964
/muse/elements/beta_absolute 0.816495 1.099564 1.267074 0.771605
/muse/elements/delta_absolute 0.405214 0.442004 0.250549 0.444479
/muse/elements/gamma_absolute 0.355341 1.013891 0.974501 0.425949
/muse/elements/theta_absolute 0.450244 0.014641 -0.077423 0.431301
/muse/eeg 858.679749 802.750427 830.715088 840.584961
/muse/eeg 845.519897 802.750427 834.005005 835.650024
/muse/eeg 845.519897 804.395386 838.940002 832.360046
/muse/eeg 848.809875 799.460449 824.135132 829.070068
/muse/eeg 850.454834 812.620300 827.425110 827.425110
/muse/eeg 843.874939 802.750427 838.940002 822.490173
/muse/eeg 837.294983 820.845215 834.005005 817.555237
/muse/eeg 840.584961 817.555237 842.229919 824.135132
/muse/eeg 840.584961 817.555237 853.744812 822.490173
/muse/eeg 840.584961 822.490173 847.164856 819.200195
/muse/acc 289.062958 835.938782 457.031952
/muse/acc 289.062958 835.938782 460.938232
/muse/acc 292.969208 839.845093 464.844482
/muse/acc 289.062958 843.751343 464.844482
/muse/eeg 840.584961 822.490173 843.874939 815.910278
Unknown message         
	 Source: 'osc.udp://127.0.0.1:55693/'         
	 Address: '/muse/eeg/quantization'         
	 Types: 'iiii '         
	 Payload: '[1, 1, 1, 1]'
/muse/eeg 837.294983 830.715088 843.874939 815.910278
/muse/eeg 838.940002 827.425110 834.005005 825.780151
/muse/eeg 834.005005 830.715088 847.164856 820.845215
/muse/eeg 827.425110 815.910278 848.809875 812.620300
/muse/eeg 822.490173 829.070068 834.005005 796.170471
/muse/eeg 807.685364 824.135132 835.650024 789.590576
/muse/eeg 801.105408 819.200195 834.005005 781.365662
/muse/eeg 802.750427 812.620300 837.294983 779.720703
/muse/eeg 779.720703 819.200195 835.650024 753.401001
/muse/eeg 751.756042 832.360046 838.940002 718.856384
/muse/eeg 746.821106 824.135132 850.454834 718.856384
/muse/elements/alpha_relative 0.147329 0.068697 0.048480 0.129902
/muse/elements/beta_relative 0.386567 0.452924 0.575835 0.361146
/muse/elements/delta_relative 0.159040 0.091609 0.058482 0.165023
/muse/elements/gamma_relative 0.135763 0.352130 0.289509 0.174120
/muse/elements/theta_relative 0.171302 0.034639 0.027695 0.169809
/muse/elements/horseshoe 1.000000 1.000000 1.000000 1.000000
/muse/elements/is_good 1 1 1 1
/muse/elements/blink [0]
/muse/elements/jaw_clench [0]
/muse/elements/touching_forehead [1]
/muse/elements/experimental/concentration [0.17482221126556396]
/muse/elements/experimental/mellow [0.0]
/muse/elements/low_freqs_absolute 0.730581 0.557675 0.445500 0.709728
/muse/elements/alpha_absolute 0.379905 0.293386 0.195672 0.298517
/muse/elements/beta_absolute 0.798842 1.112474 1.270410 0.742585
/muse/elements/delta_absolute 0.413125 0.418388 0.277131 0.402445
/muse/elements/gamma_absolute 0.344398 1.003152 0.971773 0.425752
/muse/elements/theta_absolute 0.445379 -0.003982 -0.047491 0.414863
/muse/eeg 727.081299 820.845215 843.874939 704.051575
/muse/eeg 713.921448 797.815491 837.294983 697.471680
/muse/eeg 692.536743 814.265259 829.070068 674.441956
/muse/eeg 690.891724 802.750427 822.490173 669.507019
/muse/acc 289.062958 843.751343 464.844482
/muse/drlref 1629032.250000 1641935.500000
/muse/acc 289.062958 839.845093 460.938232
/muse/acc 289.062958 835.938782 460.938232
/muse/eeg 677.731873 794.525513 825.780151 657.992126
Unknown message         
	 Source: 'osc.udp://127.0.0.1:55693/'         
	 Address: '/muse/eeg/quantization'         
	 Types: 'iiii '         
	 Payload: '[1, 1, 1, 1]'
/muse/eeg 679.376892 806.040344 840.584961 664.572083
/muse/eeg 676.086914 815.910278 850.454834 662.927063
/muse/eeg 684.311829 814.265259 820.845215 667.862000
/muse/eeg 697.471680 829.070068 815.910278 677.731873
/muse/eeg 700.761597 809.330322 817.555237 676.086914
/muse/eeg 717.211426 819.200195 807.685364 694.181702
/muse/eeg 725.436340 829.070068 838.940002 705.696594
/muse/eeg 722.146362 822.490173 809.330322 702.406616
/muse/eeg 718.856384 812.620300 824.135132 700.761597
/muse/eeg 733.661255 797.815491 848.809875 718.856384
/muse/eeg 745.176086 829.070068 845.519897 723.791321
/muse/eeg 758.335938 817.555237 860.324707 745.176086
/muse/eeg 771.495789 829.070068 840.584961 758.335938
/muse/eeg 787.945557 827.425110 840.584961 773.140747
/muse/eeg 802.750427 845.519897 842.229919 791.235535
/muse/acc 289.062958 832.032532 460.938232
/muse/acc 289.062958 835.938782 460.938232
/muse/acc 289.062958 835.938782 460.938232
/muse/drlref 1625806.500000 1645161.250000
/muse/acc 289.062958 835.938782 460.938232
/muse/eeg 781.365662 824.135132 814.265259 768.205811
Unknown message         
	 Source: 'osc.udp://127.0.0.1:55693/'         
	 Address: '/muse/eeg/quantization'         
	 Types: 'iiii '         
	 Payload: '[1, 1, 1, 1]'
/muse/eeg 796.170471 806.040344 820.845215 779.720703
/muse/elements/alpha_relative 0.147329 0.071918 0.047132 0.129902
/muse/elements/beta_relative 0.386567 0.467068 0.573344 0.361146
/muse/elements/delta_relative 0.159040 0.084833 0.061654 0.165023
/muse/elements/gamma_relative 0.135763 0.342245 0.288372 0.174120
/muse/elements/theta_relative 0.171302 0.033936 0.029498 0.169809
/muse/elements/horseshoe 1.000000 1.000000 1.000000 1.000000
/muse/elements/is_good 1 1 1 1
/muse/elements/blink [0]
/muse/elements/jaw_clench [0]
/muse/elements/touching_forehead [1]
/muse/elements/experimental/concentration [0.1581222116947174]
/muse/elements/experimental/mellow [0.0]
/muse/elements/low_freqs_absolute 0.730581 0.529079 0.472843 0.709728
/muse/elements/alpha_absolute 0.379905 0.311213 0.186391 0.298517
/muse/elements/beta_absolute 0.798842 1.123755 1.271493 0.742585
/muse/elements/delta_absolute 0.413125 0.382942 0.303039 0.402445
/muse/elements/gamma_absolute 0.344398 0.988712 0.973031 0.425752
/muse/elements/theta_absolute 0.445379 -0.014967 -0.017133 0.414863
/muse/eeg 806.040344 822.490173 840.584961 792.880554
/muse/eeg 815.910278 806.040344 837.294983 802.750427
/muse/eeg 832.360046 829.070068 822.490173 829.070068
/muse/eeg 835.650024 845.519897 838.940002 832.360046
/muse/eeg 837.294983 830.715088 852.099792 824.135132
/muse/eeg 820.845215 776.430725 829.070068 814.265259
/muse/eeg 815.910278 815.910278 837.294983 802.750427
/muse/eeg 827.425110 829.070068 835.650024 810.975281
/muse/eeg 827.425110 804.395386 845.519897 812.620300
/muse/eeg 837.294983 830.715088 840.584961 819.200195
/muse/eeg 848.809875 809.330322 819.200195 832.360046
/muse/eeg 858.679749 827.425110 820.845215 838.940002
/muse/eeg 875.129517 824.135132 855.389771 863.614685
/muse/eeg 875.129517 792.880554 842.229919 863.614685
/muse/eeg 855.389771 778.075684 820.845215 842.229919
/muse/acc 289.062958 835.938782 460.938232
/muse/acc 285.156708 839.845093 460.938232
/muse/acc 289.062958 832.032532 464.844482
/muse/acc 292.969208 832.032532 464.844482
/muse/eeg 866.904663 812.620300 832.360046 852.099792
Unknown message         
	 Source: 'osc.udp://127.0.0.1:55693/'         
	 Address: '/muse/eeg/quantization'         
	 Types: 'iiii '         
	 Payload: '[1, 1, 1, 1]'
/muse/eeg 871.839600 834.005005 837.294983 860.324707
/muse/eeg 861.969727 817.555237 834.005005 853.744812
/muse/eeg 871.839600 817.555237 852.099792 861.969727
/muse/eeg 863.614685 804.395386 842.229919 848.809875
/muse/eeg 861.969727 835.650024 834.005005 850.454834
/muse/eeg 870.194580 829.070068 850.454834 855.389771
/muse/elements/alpha_relative 0.147329 0.072941 0.053863 0.129902
/muse/elements/beta_relative 0.386567 0.481405 0.566937 0.361146
/muse/elements/delta_relative 0.159040 0.077365 0.062800 0.165023
/muse/elements/gamma_relative 0.135763 0.333897 0.286238 0.174120
/muse/elements/theta_relative 0.171302 0.034392 0.030163 0.169809
/muse/elements/horseshoe 1.000000 1.000000 1.000000 1.000000
/muse/elements/is_good 1 1 1 1
/muse/elements/blink [0]
/muse/elements/jaw_clench [0]
/muse/elements/touching_forehead [1]
/muse/elements/experimental/concentration [0.14142221212387085]
/muse/elements/experimental/mellow [0.0]
/muse/elements/low_freqs_absolute 0.730581 0.496511 0.487907 0.709728
/muse/elements/alpha_absolute 0.379905 0.311207 0.250890 0.298517
/muse/elements/beta_absolute 0.798842 1.130746 1.273134 0.742585
/muse/elements/delta_absolute 0.413125 0.336782 0.317557 0.402445
/muse/elements/gamma_absolute 0.344398 0.971849 0.976327 0.425752
/muse/elements/theta_absolute 0.445379 -0.015309 -0.000930 0.414863
/muse/eeg 870.194580 801.105408 852.099792 858.679749
/muse/eeg 865.259644 776.430725 842.229919 857.034729
/muse/eeg 858.679749 807.685364 840.584961 845.519897
/muse/eeg 866.904663 824.135132 830.715088 843.874939
/muse/eeg 886.644409 827.425110 820.845215 861.969727
/muse/eeg 898.159241 807.685364 824.135132 881.709473
/muse/eeg 901.449219 812.620300 837.294983 884.999451
/muse/eeg 888.289368 825.780151 847.164856 866.904663
/muse/eeg 878.419495 807.685364 842.229919 857.034729
/muse/acc 289.062958 835.938782 464.844482
/muse/drlref 1629032.250000 1641935.500000
/muse/acc 289.062958 835.938782 468.750732
Unknown message         
	 Source: 'osc.udp://127.0.0.1:55693/'         
	 Address: '/muse/config'         
	 Types: 's '         
	 Payload: '['{"mac_addr":"000666A069D0","serial_number":"1160-UJMN-69D0","preset":"14","filters_enabled":true,"notch_frequency_hz":60,"battery_data_enabled":true,"compression_enabled":true,"eeg_sample_frequency_hz":3520,"eeg_output_frequency_hz":220,"eeg_channel_count":4,"eeg_samples_bitwidth":10,"eeg_channel_layout":"TP9 FP1 FP2 TP10 ","eeg_downsample":16,"afe_gain":1961,"battery_percent_remaining":38,"battery_millivolts":3729,"eeg_units":"EEG_MICROVOLTS","acc_units":"ACC_GFORCE","eeg_conversion_factor":1.644980342484907,"drlref_conversion_factor":3225.806451612903,"acc_conversion_factor":3.906256109482,"acc_sample_frequency_hz":50,"drlref_sample_frequency_hz":10,"acc_data_enabled":true,"drlref_data_enabled":true,"error_data_enabled":true}\n']'
Unknown message         
	 Source: 'osc.udp://127.0.0.1:55693/'         
	 Address: '/muse/version'         
	 Types: 's '         
	 Payload: '['{"hardware_version":"16.0.0","firmware_headset_version":"7.2.7","firmware_bootloader_version":"7.2.7","firmware_type":"Research","build_number":41,"protocol_version":2}\n']'
/muse/acc 285.156708 835.938782 468.750732
/muse/eeg 875.129517 817.555237 848.809875 857.034729
Unknown message         
	 Source: 'osc.udp://127.0.0.1:55693/'         
	 Address: '/muse/eeg/quantization'         
	 Types: 'iiii '         
	 Payload: '[1, 1, 1, 1]'
/muse/eeg 866.904663 781.365662 837.294983 857.034729
/muse/eeg 873.484558 822.490173 830.715088 863.614685
/muse/eeg 880.064453 804.395386 824.135132 868.549622
/muse/eeg 875.129517 794.525513 817.555237 863.614685
/muse/eeg 893.224304 814.265259 847.164856 880.064453
/muse/eeg 903.094238 810.975281 834.005005 889.934387
/muse/eeg 894.869324 842.229919 807.685364 883.354431
/muse/eeg 880.064453 829.070068 845.519897 866.904663
/muse/eeg 880.064453 794.525513 824.135132 863.614685
/muse/eeg 888.289368 806.040344 857.034729 868.549622
/muse/eeg 873.484558 815.910278 858.679749 855.389771
/muse/eeg 876.774536 796.170471 822.490173 860.324707
/muse/elements/alpha_relative 0.147329 0.077541 0.064639 0.129902
/muse/elements/beta_relative 0.386567 0.489666 0.561136 0.361146
/muse/elements/delta_relative 0.159040 0.071095 0.062175 0.165023
/muse/elements/gamma_relative 0.135763 0.325273 0.281886 0.174120
/muse/elements/theta_relative 0.171302 0.036425 0.030164 0.169809
/muse/elements/horseshoe 1.000000 1.000000 1.000000 1.000000
/muse/elements/is_good 1 1 1 1
/muse/elements/blink [1]
/muse/elements/jaw_clench [0]
/muse/elements/touching_forehead [1]
/muse/elements/experimental/concentration [0.12472221255302429]
/muse/elements/experimental/mellow [0.0]
/muse/elements/low_freqs_absolute 0.730581 0.472029 0.494613 0.709728
/muse/elements/alpha_absolute 0.379905 0.330070 0.339720 0.298517
/muse/elements/beta_absolute 0.798842 1.130440 1.278297 0.742585
/muse/elements/delta_absolute 0.413125 0.292376 0.322844 0.402445
/muse/elements/gamma_absolute 0.344398 0.952788 0.979303 0.425752
/muse/elements/theta_absolute 0.445379 0.001945 0.008715 0.414863
/muse/eeg 896.514282 817.555237 802.750427 878.419495
/muse/eeg 898.159241 807.685364 817.555237 880.064453
/muse/eeg 886.644409 801.105408 848.809875 873.484558
/muse/acc 285.156708 835.938782 464.844482
/muse/acc 292.969208 828.126282 468.750732
/muse/acc 289.062958 832.032532 468.750732
/muse/drlref 1625806.500000 1641935.500000
/muse/acc 289.062958 835.938782 468.750732
/muse/eeg 893.224304 810.975281 852.099792 871.839600
Unknown message         
	 Source: 'osc.udp://127.0.0.1:55693/'         
	 Address: '/muse/eeg/quantization'         
	 Types: 'iiii '         
	 Payload: '[1, 1, 1, 1]'
/muse/eeg 889.934387 820.845215 861.969727 873.484558
/muse/eeg 881.709473 812.620300 848.809875 870.194580
/muse/eeg 883.354431 809.330322 822.490173 865.259644
/muse/eeg 881.709473 820.845215 822.490173 861.969727
/muse/eeg 863.614685 812.620300 829.070068 845.519897
/muse/eeg 863.614685 824.135132 827.425110 847.164856
/muse/eeg 883.354431 807.685364 842.229919 868.549622
/muse/eeg 866.904663 799.460449 812.620300 855.389771
/muse/eeg 880.064453 812.620300 825.780151 861.969727
/muse/eeg 891.579346 810.975281 847.164856 870.194580
/muse/eeg 899.804260 837.294983 853.744812 881.709473
/muse/eeg 894.869324 812.620300 852.099792 875.129517
/muse/eeg 868.549622 814.265259 819.200195 847.164856
/muse/eeg 870.194580 796.170471 820.845215 855.389771
/muse/eeg 868.549622 787.945557 840.584961 852.099792
/muse/acc 289.062958 835.938782 468.750732
/muse/acc 289.062958 835.938782 468.750732
/muse/acc 292.969208 835.938782 468.750732
/muse/eeg 878.419495 817.555237 835.650024 865.259644
Unknown message         
	 Source: 'osc.udp://127.0.0.1:55693/'         
	 Address: '/muse/eeg/quantization'         
	 Types: 'iiii '         
	 Payload: '[1, 1, 1, 1]'
/muse/eeg 876.774536 832.360046 840.584961 865.259644
/muse/eeg 860.324707 825.780151 810.975281 843.874939
/muse/elements/alpha_relative 0.147329 0.093348 0.070946 0.129902
/muse/elements/beta_relative 0.386567 0.484911 0.560178 0.361146
/muse/elements/delta_relative 0.159040 0.067483 0.061507 0.165023
/muse/elements/gamma_relative 0.135763 0.313955 0.276627 0.174120
/muse/elements/theta_relative 0.171302 0.040302 0.030742 0.169809
/muse/elements/horseshoe 1.000000 1.000000 1.000000 1.000000
/muse/elements/is_good 1 1 1 1
/muse/elements/blink [0]
/muse/elements/jaw_clench [0]
/muse/elements/touching_forehead [1]
/muse/elements/experimental/concentration [0.10802221298217773]
/muse/elements/experimental/mellow [0.0]
/muse/elements/low_freqs_absolute 0.730581 0.468075 0.502698 0.709728
/muse/elements/alpha_absolute 0.379905 0.405620 0.388664 0.298517
/muse/elements/beta_absolute 0.798842 1.121175 1.286061 0.742585
/muse/elements/delta_absolute 0.413125 0.264711 0.326661 0.402445
/muse/elements/gamma_absolute 0.344398 0.932382 0.979630 0.425752
/muse/elements/theta_absolute 0.445379 0.040843 0.025467 0.414863
/muse/eeg 860.324707 796.170471 815.910278 840.584961
/muse/eeg 871.839600 789.590576 843.874939 848.809875
/muse/eeg 861.969727 796.170471 848.809875 853.744812
/muse/eeg 866.904663 837.294983 848.809875 852.099792
/muse/eeg 873.484558 837.294983 845.519897 852.099792
/muse/eeg 863.614685 796.170471 840.584961 847.164856
/muse/eeg 870.194580 778.075684 822.490173 847.164856
/muse/eeg 873.484558 822.490173 810.975281 853.744812
/muse/eeg 875.129517 806.040344 814.265259 855.389771
/muse/eeg 863.614685 810.975281 814.265259 842.229919
/muse/eeg 855.389771 801.105408 838.940002 838.940002
/muse/eeg 863.614685 817.555237 873.484558 843.874939
/muse/eeg 861.969727 845.519897 860.324707 845.519897
/muse/acc 289.062958 835.938782 468.750732
/muse/acc 289.062958 835.938782 468.750732
/muse/drlref 1629032.250000 1641935.500000
/muse/acc 292.969208 832.032532 468.750732
/muse/acc 289.062958 835.938782 464.844482
/muse/eeg 865.259644 822.490173 848.809875 848.809875
Unknown message         
	 Source: 'osc.udp://127.0.0.1:55693/'         
	 Address: '/muse/eeg/quantization'         
	 Types: 'iiii '         
	 Payload: '[1, 1, 1, 1]'
/muse/eeg 842.229919 802.750427 815.910278 829.070068
/muse/eeg 857.034729 791.235535 801.105408 834.005005
/muse/eeg 861.969727 806.040344 834.005005 840.584961
/muse/eeg 857.034729 819.200195 840.584961 845.519897
/muse/eeg 860.324707 827.425110 850.454834 843.874939
/muse/eeg 866.904663 796.170471 819.200195 845.519897
/muse/eeg 866.904663 784.655640 832.360046 847.164856
/muse/eeg 857.034729 809.330322 847.164856 832.360046
/muse/elements/alpha_relative 0.147329 0.107414 0.072895 0.129902
/muse/elements/beta_relative 0.386567 0.473860 0.561909 0.361146
/muse/elements/delta_relative 0.159040 0.067578 0.061498 0.165023
/muse/elements/gamma_relative 0.135763 0.305030 0.271213 0.174120
/muse/elements/theta_relative 0.171302 0.046119 0.032486 0.169809
/muse/elements/horseshoe 1.000000 1.000000 1.000000 1.000000
/muse/elements/is_good 1 1 1 1
/muse/elements/blink [0]
/muse/elements/jaw_clench [0]
/muse/elements/touching_forehead [1]
/muse/elements/experimental/concentration [0.09132221341133118]
/muse/elements/experimental/mellow [0.0]
/muse/elements/low_freqs_absolute 0.730581 0.483465 0.515664 0.709728
/muse/elements/alpha_absolute 0.379905 0.458775 0.405308 0.298517
/muse/elements/beta_absolute 0.798842 1.103365 1.292278 0.742585
/muse/elements/delta_absolute 0.413125 0.257520 0.331473 0.402445
/muse/elements/gamma_absolute 0.344398 0.912058 0.975924 0.425752
/muse/elements/theta_absolute 0.445379 0.091597 0.054304 0.414863
/muse/eeg 852.099792 824.135132 837.294983 827.425110
/muse/eeg 852.099792 809.330322 824.135132 832.360046
/muse/eeg 838.940002 812.620300 829.070068 820.845215
/muse/eeg 852.099792 837.294983 829.070068 827.425110
/muse/eeg 870.194580 825.780151 820.845215 847.164856
/muse/eeg 845.519897 819.200195 832.360046 824.135132
/muse/eeg 842.229919 768.205811 810.975281 830.715088
/muse/acc 292.969208 832.032532 464.844482
/muse/acc 292.969208 832.032532 464.844482
/muse/acc 292.969208 832.032532 464.844482
/muse/drlref 1629032.250000 1641935.500000
/muse/acc 292.969208 832.032532 464.844482
/muse/eeg 842.229919 776.430725 820.845215 835.650024
Unknown message         
	 Source: 'osc.udp://127.0.0.1:55693/'         
	 Address: '/muse/eeg/quantization'         
	 Types: 'iiii '         
	 Payload: '[1, 1, 1, 1]'
/muse/eeg 840.584961 820.845215 852.099792 830.715088
/muse/eeg 842.229919 829.070068 830.715088 835.650024
/muse/eeg 845.519897 837.294983 845.519897 832.360046
/muse/eeg 852.099792 799.460449 838.940002 832.360046
/muse/eeg 842.229919 819.200195 830.715088 822.490173
/muse/eeg 845.519897 819.200195 835.650024 834.005005
/muse/eeg 837.294983 799.460449 812.620300 824.135132
/muse/eeg 848.809875 796.170471 820.845215 837.294983
/muse/eeg 853.744812 812.620300 832.360046 840.584961
/muse/eeg 843.874939 812.620300 835.650024 825.780151
/muse/eeg 837.294983 817.555237 848.809875 820.845215
/muse/eeg 834.005005 824.135132 842.229919 807.685364
/muse/eeg 840.584961 809.330322 825.780151 807.685364
/muse/eeg 855.389771 843.874939 843.874939 819.200195
/muse/elements/alpha_relative 0.147329 0.110619 0.073150 0.129902
/muse/elements/beta_relative 0.386567 0.462750 0.562562 0.361146
/muse/elements/delta_relative 0.159040 0.070465 0.061603 0.165023
/muse/elements/gamma_relative 0.135763 0.303025 0.267617 0.174120
/muse/elements/theta_relative 0.171302 0.053141 0.035069 0.169809
/muse/elements/horseshoe 1.000000 1.000000 1.000000 1.000000
/muse/elements/is_good 1 1 1 1
/muse/elements/blink [0]
/muse/elements/jaw_clench [0]
/muse/elements/touching_forehead [1]
/muse/elements/experimental/concentration [0.07462221384048462]
/muse/elements/experimental/mellow [0.0]
/muse/elements/low_freqs_absolute 0.730581 0.506342 0.527975 0.709728
/muse/elements/alpha_absolute 0.379905 0.458131 0.406887 0.298517
/muse/elements/beta_absolute 0.798842 1.079649 1.292845 0.742585
/muse/elements/delta_absolute 0.413125 0.262274 0.332275 0.402445
/muse/elements/gamma_absolute 0.344398 0.895781 0.970188 0.425752
/muse/elements/theta_absolute 0.445379 0.139736 0.087600 0.414863
/muse/eeg 866.904663 814.265259 838.940002 837.294983
/muse/acc 296.875458 832.032532 464.844482
/muse/acc 296.875458 835.938782 464.844482
/muse/acc 300.781708 832.032532 464.844482
/muse/eeg 857.034729 810.975281 830.715088 827.425110
Unknown message         
	 Source: 'osc.udp://127.0.0.1:55693/'         
	 Address: '/muse/eeg/quantization'         
	 Types: 'iiii '         
	 Payload: '[1, 1, 1, 1]'
/muse/eeg 852.099792 801.105408 832.360046 830.715088
/muse/eeg 843.874939 820.845215 825.780151 825.780151
/muse/eeg 845.519897 814.265259 832.360046 832.360046
/muse/eeg 838.940002 806.040344 825.780151 835.650024
/muse/eeg 834.005005 820.845215 814.265259 825.780151
/muse/eeg 838.940002 822.490173 814.265259 827.425110
/muse/eeg 830.715088 838.940002 835.650024 810.975281
/muse/eeg 845.519897 824.135132 853.744812 824.135132
/muse/eeg 838.940002 807.685364 855.389771 824.135132
/muse/eeg 855.389771 806.040344 837.294983 838.940002
/muse/eeg 855.389771 847.164856 840.584961 842.229919
/muse/eeg 835.650024 809.330322 834.005005 822.490173
/muse/eeg 845.519897 801.105408 843.874939 824.135132
/muse/eeg 838.940002 794.525513 825.780151 814.265259
/muse/eeg 842.229919 806.040344 807.685364 825.780151
/muse/acc 304.687988 828.126282 464.844482
/muse/acc 304.687988 832.032532 464.844482
/muse/drlref 1625806.500000 1641935.500000
/muse/acc 304.687988 832.032532 464.844482
/muse/acc 304.687988 832.032532 464.844482
/muse/eeg 837.294983 837.294983 802.750427 819.200195
Unknown message         
	 Source: 'osc.udp://127.0.0.1:55693/'         
	 Address: '/muse/eeg/quantization'         
	 Types: 'iiii '         
	 Payload: '[1, 1, 1, 1]'
/muse/eeg 827.425110 827.425110 804.395386 804.395386
/muse/eeg 842.229919 819.200195 847.164856 822.490173
/muse/eeg 840.584961 815.910278 845.519897 819.200195
/muse/eeg 835.650024 812.620300 858.679749 820.845215
/muse/elements/alpha_relative 0.147329 0.113627 0.073798 0.129902
/muse/elements/beta_relative 0.386567 0.447679 0.559136 0.361146
/muse/elements/delta_relative 0.159040 0.073689 0.060592 0.165023
/muse/elements/gamma_relative 0.135763 0.306343 0.268603 0.174120
/muse/elements/theta_relative 0.171302 0.058662 0.037871 0.169809
/muse/elements/horseshoe 1.000000 1.000000 1.000000 1.000000
/muse/elements/is_good 1 1 1 1
/muse/elements/blink [0]
/muse/elements/jaw_clench [0]
/muse/elements/touching_forehead [1]
/muse/elements/experimental/concentration [0.05792221426963806]
/muse/elements/experimental/mellow [0.0]
/muse/elements/low_freqs_absolute 0.730581 0.524377 0.532118 0.709728
/muse/elements/alpha_absolute 0.379905 0.458131 0.406887 0.298517
/muse/elements/beta_absolute 0.798842 1.053616 1.286361 0.742585
/muse/elements/delta_absolute 0.413125 0.270052 0.321260 0.402445
/muse/elements/gamma_absolute 0.344398 0.888857 0.967955 0.425752
/muse/elements/theta_absolute 0.445379 0.171007 0.117153 0.414863
/muse/eeg 834.005005 824.135132 843.874939 817.555237
/muse/eeg 840.584961 812.620300 832.360046 814.265259
/muse/eeg 843.874939 797.815491 842.229919 827.425110
/muse/eeg 835.650024 829.070068 837.294983 824.135132
/muse/eeg 825.780151 791.235535 817.555237 814.265259
/muse/eeg 837.294983 817.555237 806.040344 815.910278
/muse/eeg 835.650024 812.620300 814.265259 809.330322
/muse/eeg 850.454834 802.750427 837.294983 825.780151
/muse/eeg 845.519897 838.940002 855.389771 819.200195
/muse/eeg 837.294983 809.330322 852.099792 817.555237
/muse/eeg 847.164856 812.620300 850.454834 824.135132
/muse/eeg 855.389771 807.685364 835.650024 832.360046
/muse/acc 304.687988 832.032532 464.844482
/muse/acc 304.687988 835.938782 464.844482
/muse/acc 304.687988 835.938782 460.938232
/muse/drlref 1629032.250000 1645161.250000
/muse/acc 304.687988 835.938782 460.938232
/muse/eeg 857.034729 825.780151 830.715088 838.940002
Unknown message         
	 Source: 'osc.udp://127.0.0.1:55693/'         
	 Address: '/muse/eeg/quantization'         
	 Types: 'iiii '         
	 Payload: '[1, 1, 1, 1]'
/muse/eeg 855.389771 814.265259 819.200195 840.584961
/muse/eeg 860.324707 807.685364 837.294983 850.454834
/muse/eeg 875.129517 809.330322 840.584961 855.389771
/muse/eeg 873.484558 804.395386 842.229919 848.809875
/muse/eeg 866.904663 837.294983 861.969727 842.229919
/muse/eeg 880.064453 812.620300 845.519897 853.744812
/muse/eeg 884.999451 799.460449 837.294983 861.969727
/muse/eeg 883.354431 783.010620 837.294983 868.549622
/muse/eeg 870.194580 810.975281 835.650024 858.679749
/muse/elements/alpha_relative 0.147329 0.113796 0.074757 0.129902
/muse/elements/beta_relative 0.386567 0.431302 0.551528 0.361146
/muse/elements/delta_relative 0.159040 0.075558 0.057871 0.165023
/muse/elements/gamma_relative 0.135763 0.317895 0.275736 0.174120
/muse/elements/theta_relative 0.171302 0.061449 0.040108 0.169809
/muse/elements/horseshoe 1.000000 1.000000 1.000000 1.000000
/muse/elements/is_good 1 1 1 1
/muse/elements/blink [0]
/muse/elements/jaw_clench [0]
/muse/elements/touching_forehead [1]
/muse/elements/experimental/concentration [0.041222214698791504]
/muse/elements/experimental/mellow [0.0]
/muse/elements/low_freqs_absolute 0.730581 0.530284 0.524371 0.709728
/muse/elements/alpha_absolute 0.379905 0.449670 0.406887 0.298517
/muse/elements/beta_absolute 0.798842 1.028324 1.274806 0.742585
/muse/elements/delta_absolute 0.413125 0.271820 0.295701 0.402445
/muse/elements/gamma_absolute 0.344398 0.895827 0.973731 0.425752
/muse/elements/theta_absolute 0.445379 0.182059 0.136465 0.414863
/muse/eeg 884.999451 822.490173 832.360046 865.259644
/muse/eeg 894.869324 814.265259 830.715088 870.194580
/muse/eeg 896.514282 806.040344 822.490173 875.129517
/muse/eeg 880.064453 815.910278 837.294983 858.679749
/muse/eeg 863.614685 802.750427 860.324707 845.519897
/muse/eeg 870.194580 809.330322 855.389771 855.389771
/muse/acc 304.687988 832.032532 457.031952
/muse/acc 308.594238 832.032532 457.031952
/muse/acc 308.594238 832.032532 453.125702
/muse/eeg 858.679749 817.555237 843.874939 842.229919
Unknown message         
	 Source: 'osc.udp://127.0.0.1:55693/'         
	 Address: '/muse/eeg/quantization'         
	 Types: 'iiii '         
	 Payload: '[1, 1, 1, 1]'
/muse/eeg 865.259644 794.525513 842.229919 850.454834
/muse/eeg 868.549622 832.360046 852.099792 848.809875
/muse/eeg 881.709473 806.040344 855.389771 861.969727
/muse/eeg 883.354431 809.330322 848.809875 868.549622
/muse/eeg 871.839600 794.525513 824.135132 853.744812
/muse/eeg 873.484558 822.490173 825.780151 855.389771
/muse/eeg 880.064453 838.940002 835.650024 858.679749
/muse/eeg 881.709473 810.975281 843.874939 868.549622
/muse/eeg 865.259644 796.170471 832.360046 850.454834
/muse/eeg 857.034729 792.880554 827.425110 847.164856
/muse/eeg 842.229919 817.555237 838.940002 834.005005
/muse/eeg 842.229919 809.330322 842.229919 832.360046
/muse/eeg 858.679749 815.910278 855.389771 852.099792
/muse/eeg 853.744812 787.945557 852.099792 848.809875
/muse/eeg 847.164856 799.460449 842.229919 848.809875
/muse/elements/alpha_relative 0.150772 0.110854 0.075598 0.130038
/muse/elements/beta_relative 0.374380 0.415749 0.541584 0.348518
/muse/elements/delta_relative 0.157684 0.075220 0.053437 0.151085
/muse/elements/gamma_relative 0.134806 0.336865 0.287755 0.186832
/muse/elements/theta_relative 0.182358 0.061312 0.041626 0.183527
/muse/elements/horseshoe 1.000000 1.000000 1.000000 1.000000
/muse/elements/is_good 1 1 1 1
/muse/elements/blink [0]
/muse/elements/jaw_clench [0]
/muse/elements/touching_forehead [1]
/muse/elements/experimental/concentration [0.024522215127944946]
/muse/elements/experimental/mellow [0.0]
/muse/elements/low_freqs_absolute 0.727012 0.521741 0.506387 0.691267
/muse/elements/alpha_absolute 0.373801 0.431258 0.406887 0.280796
/muse/elements/beta_absolute 0.768792 1.005338 1.262042 0.708951
/muse/elements/delta_absolute 0.393267 0.262838 0.256215 0.345947
/muse/elements/gamma_absolute 0.325189 0.913962 0.987398 0.438178
/muse/elements/theta_absolute 0.456404 0.174053 0.147744 0.430427
/muse/acc 308.594238 832.032532 453.125702
/muse/drlref 1625806.500000 1641935.500000
/muse/acc 312.500488 832.032532 457.031952
/muse/acc 316.406738 832.032532 457.031952
/muse/acc 316.406738 832.032532 460.938232
/muse/eeg 863.614685 822.490173 843.874939 858.679749
Unknown message         
	 Source: 'osc.udp://127.0.0.1:55693/'         
	 Address: '/muse/eeg/quantization'         
	 Types: 'iiii '         
	 Payload: '[1, 1, 1, 1]'
/muse/eeg 865.259644 810.975281 838.940002 852.099792
/muse/eeg 858.679749 810.975281 835.650024 840.584961
/muse/eeg 852.099792 791.235535 829.070068 837.294983
/muse/eeg 847.164856 814.265259 827.425110 835.650024
/muse/eeg 845.519897 827.425110 830.715088 835.650024
/muse/eeg 835.650024 799.460449 814.265259 829.070068
/muse/eeg 843.874939 799.460449 830.715088 832.360046
/muse/eeg 853.744812 832.360046 857.034729 840.584961
/muse/eeg 865.259644 837.294983 850.454834 850.454834
/muse/eeg 858.679749 817.555237 830.715088 847.164856
/muse/eeg 842.229919 789.590576 825.780151 834.005005
/muse/eeg 845.519897 802.750427 829.070068 834.005005
/muse/eeg 834.005005 819.200195 840.584961 822.490173
/muse/eeg 837.294983 814.265259 837.294983 825.780151
/muse/eeg 853.744812 814.265259 838.940002 843.874939
/muse/acc 308.594238 839.845093 457.031952
/muse/acc 316.406738 835.938782 464.844482
/muse/acc 320.312988 832.032532 468.750732
/muse/drlref 1629032.250000 1641935.500000
/muse/eeg 858.679749 810.975281 834.005005 848.809875
Unknown message         
	 Source: 'osc.udp://127.0.0.1:55693/'         
	 Address: '/muse/eeg/quantization'         
	 Types: 'iiii '         
	 Payload: '[1, 1, 1, 1]'
/muse/eeg 858.679749 820.845215 829.070068 837.294983
/muse/eeg 847.164856 819.200195 837.294983 830.715088
/muse/eeg 853.744812 804.395386 832.360046 834.005005
/muse/eeg 845.519897 779.720703 832.360046 830.715088
/muse/eeg 842.229919 796.170471 840.584961 830.715088
/muse/elements/alpha_relative 0.147677 0.110803 0.076028 0.120056
/muse/elements/beta_relative 0.362521 0.400508 0.532307 0.340883
/muse/elements/delta_relative 0.156051 0.072707 0.048531 0.130007
/muse/elements/gamma_relative 0.136870 0.356744 0.300622 0.209960
/muse/elements/theta_relative 0.196881 0.059238 0.042511 0.199093
/muse/elements/horseshoe 1.000000 1.000000 1.000000 1.000000
/muse/elements/is_good 1 1 1 1
/muse/elements/blink [0]
/muse/elements/jaw_clench [0]
/muse/elements/touching_forehead [1]
/muse/elements/experimental/concentration [0.007822214625775814]
/muse/elements/experimental/mellow [0.0]
/muse/elements/low_freqs_absolute 0.715557 0.502951 0.485155 0.645728
/muse/elements/alpha_absolute 0.337179 0.427111 0.406887 0.207785
/muse/elements/beta_absolute 0.727200 0.985170 1.252073 0.661005
/muse/elements/delta_absolute 0.361132 0.244132 0.211932 0.242368
