/muse/acc 304.687988 871.095093 371.094330
/muse/eeg 850.454834 834.005005 832.360046 825.780151
Unknown message         
	 Source: 'osc.udp://127.0.0.1:55693/'         
	 Address: '/muse/eeg/quantization'         
	 Types: 'iiii '         
	 Payload: '[1, 1, 1, 1]'
/muse/eeg 857.034729 814.265259 835.650024 832.360046
/muse/eeg 853.744812 810.975281 843.874939 829.070068
/muse/eeg 861.969727 797.815491 832.360046 834.005005
/muse/eeg 858.679749 801.105408 832.360046 827.425110
/muse/eeg 855.389771 815.910278 843.874939 827.425110
/muse/eeg 845.519897 810.975281 817.555237 822.490173
/muse/eeg 847.164856 815.910278 825.780151 824.135132
/muse/eeg 852.099792 825.780151 838.940002 825.780151
/muse/eeg 838.940002 810.975281 835.650024 817.555237
/muse/eeg 835.650024 807.685364 840.584961 817.555237
/muse/eeg 837.294983 802.750427 838.940002 822.490173
/muse/eeg 842.229919 815.910278 835.650024 829.070068
/muse/eeg 830.715088 829.070068 834.005005 817.555237
/muse/eeg 840.584961 810.975281 827.425110 824.135132
/muse/eeg 842.229919 802.750427 830.715088 827.425110
/muse/eeg 842.229919 789.590576 827.425110 832.360046
/muse/acc 304.687988 867.188843 371.094330
/muse/acc 304.687988 871.095093 371.094330
/muse/acc 304.687988 875.001343 371.094330
/muse/drlref 1629032.250000 1641935.500000
/muse/acc 304.687988 871.095093 371.094330
/muse/eeg 845.519897 830.715088 835.650024 827.425110
Unknown message         
	 Source: 'osc.udp://127.0.0.1:55693/'         
	 Address: '/muse/eeg/quantization'         
	 Types: 'iiii '         
	 Payload: '[1, 1, 1, 1]'
/muse/eeg 845.519897 799.460449 834.005005 830.715088
/muse/elements/alpha_relative 0.144625 0.168644 0.071864 0.182968
/muse/elements/beta_relative 0.075178 0.374982 0.399980 0.062787
/muse/elements/delta_relative 0.451223 0.086351 0.189132 0.436359
/muse/elements/gamma_relative 0.040382 0.297072 0.254291 0.031691
/muse/elements/theta_relative 0.288592 0.072951 0.084733 0.286194
/muse/elements/horseshoe 1.000000 1.000000 1.000000 1.000000
/muse/elements/is_good 1 1 1 1
/muse/elements/blink [0]
/muse/elements/jaw_clench [0]
/muse/elements/touching_forehead [1]
/muse/elements/experimental/concentration [0.32685068249702454]
/muse/elements/experimental/mellow [0.22011028230190277]
/muse/elements/low_freqs_absolute 1.541935 0.493982 0.759399 1.641322
/muse/elements/alpha_absolute 0.833057 0.518733 0.178371 1.044829
/muse/elements/beta_absolute 0.548900 0.865772 0.923900 0.580319
/muse/elements/delta_absolute 1.327203 0.228028 0.598626 1.422297
/muse/elements/gamma_absolute 0.278997 0.764624 0.727193 0.283391
/muse/elements/theta_absolute 1.133097 0.154793 0.249916 1.239113
/muse/eeg 847.164856 804.395386 842.229919 834.005005
/muse/eeg 842.229919 802.750427 847.164856 829.070068
/muse/eeg 835.650024 799.460449 843.874939 824.135132
/muse/eeg 845.519897 827.425110 845.519897 829.070068
/muse/eeg 835.650024 822.490173 825.780151 820.845215
/muse/eeg 837.294983 796.170471 824.135132 825.780151
/muse/eeg 842.229919 804.395386 822.490173 834.005005
/muse/eeg 842.229919 812.620300 834.005005 832.360046
/muse/eeg 835.650024 822.490173 840.584961 822.490173
/muse/eeg 838.940002 830.715088 837.294983 822.490173
/muse/eeg 848.809875 802.750427 840.584961 832.360046
/muse/eeg 850.454834 820.845215 843.874939 830.715088
/muse/eeg 853.744812 819.200195 832.360046 838.940002
/muse/eeg 847.164856 829.070068 827.425110 832.360046
/muse/acc 308.594238 871.095093 375.000580
/muse/acc 308.594238 875.001343 375.000580
/muse/acc 308.594238 875.001343 371.094330
/muse/eeg 852.099792 809.330322 827.425110 832.360046
Unknown message         
	 Source: 'osc.udp://127.0.0.1:55693/'         
	 Address: '/muse/eeg/quantization'         
	 Types: 'iiii '         
	 Payload: '[1, 1, 1, 1]'
/muse/eeg 853.744812 797.815491 840.584961 837.294983
/muse/eeg 842.229919 804.395386 843.874939 829.070068
/muse/eeg 848.809875 807.685364 842.229919 837.294983
/muse/eeg 838.940002 824.135132 832.360046 827.425110
/muse/eeg 838.940002 809.330322 820.845215 825.780151
/muse/eeg 835.650024 815.910278 827.425110 822.490173
/muse/eeg 837.294983 840.584961 827.425110 820.845215
/muse/elements/alpha_relative 0.149463 0.168214 0.072996 0.188253
/muse/elements/beta_relative 0.077200 0.381234 0.398834 0.064129
/muse/elements/delta_relative 0.445108 0.086239 0.191661 0.431777
/muse/elements/gamma_relative 0.041620 0.292015 0.249659 0.032696
/muse/elements/theta_relative 0.286609 0.072297 0.086849 0.283145
/muse/elements/horseshoe 1.000000 1.000000 1.000000 1.000000
/muse/elements/is_good 1 1 1 1
/muse/elements/blink [0]
/muse/elements/jaw_clench [0]
/muse/elements/touching_forehead [1]
/muse/elements/experimental/concentration [0.3106457591056824]
/muse/elements/experimental/mellow [0.23525956273078918]
/muse/elements/low_freqs_absolute 1.522867 0.492998 0.762979 1.624346
/muse/elements/alpha_absolute 0.833057 0.518733 0.181439 1.044829
/muse/elements/beta_absolute 0.546141 0.874062 0.918930 0.577139
/muse/elements/delta_absolute 1.306989 0.228574 0.600673 1.405347
/muse/elements/gamma_absolute 0.277824 0.758275 0.715485 0.284578
/muse/elements/theta_absolute 1.115814 0.151990 0.256902 1.222096
/muse/eeg 843.874939 820.845215 832.360046 824.135132
/muse/eeg 843.874939 799.460449 837.294983 827.425110
/muse/eeg 845.519897 784.655640 837.294983 830.715088
/muse/eeg 837.294983 822.490173 842.229919 820.845215
/muse/eeg 845.519897 825.780151 825.780151 830.715088
/muse/eeg 838.940002 812.620300 822.490173 824.135132
/muse/eeg 838.940002 799.460449 820.845215 824.135132
/muse/eeg 843.874939 832.360046 825.780151 825.780151
/muse/acc 308.594238 867.188843 371.094330
/muse/drlref 1629032.250000 1645161.250000
/muse/acc 308.594238 871.095093 371.094330
/muse/acc 304.687988 875.001343 371.094330
/muse/acc 304.687988 875.001343 371.094330
/muse/eeg 843.874939 822.490173 840.584961 824.135132
Unknown message         
	 Source: 'osc.udp://127.0.0.1:55693/'         
	 Address: '/muse/eeg/quantization'         
	 Types: 'iiii '         
	 Payload: '[1, 1, 1, 1]'
/muse/eeg 837.294983 814.265259 848.809875 819.200195
/muse/eeg 840.584961 807.685364 832.360046 819.200195
/muse/eeg 838.940002 786.300598 815.910278 825.780151
/muse/eeg 837.294983 812.620300 830.715088 822.490173
/muse/eeg 834.005005 810.975281 837.294983 819.200195
/muse/eeg 832.360046 814.265259 822.490173 817.555237
/muse/eeg 837.294983 812.620300 824.135132 822.490173
/muse/eeg 829.070068 819.200195 837.294983 810.975281
/muse/eeg 840.584961 809.330322 838.940002 817.555237
/muse/eeg 845.519897 806.040344 847.164856 825.780151
/muse/eeg 842.229919 796.170471 825.780151 824.135132
/muse/eeg 827.425110 814.265259 822.490173 819.200195
/muse/eeg 830.715088 825.780151 838.940002 814.265259
/muse/elements/alpha_relative 0.149602 0.168276 0.077203 0.189073
/muse/elements/beta_relative 0.077994 0.386337 0.397927 0.063926
/muse/elements/delta_relative 0.440295 0.085189 0.192357 0.431204
/muse/elements/gamma_relative 0.041427 0.288848 0.245256 0.032284
/muse/elements/theta_relative 0.290682 0.071350 0.087258 0.283513
/muse/elements/horseshoe 1.000000 1.000000 1.000000 1.000000
/muse/elements/is_good 1 1 1 1
/muse/elements/blink [0]
/muse/elements/jaw_clench [0]
/muse/elements/touching_forehead [1]
/muse/elements/experimental/concentration [0.2941932678222656]
/muse/elements/experimental/mellow [0.2504088580608368]
/muse/elements/low_freqs_absolute 1.522023 0.487330 0.764780 1.622334
/muse/elements/alpha_absolute 0.833057 0.518733 0.205853 1.044829
/muse/elements/beta_absolute 0.550183 0.879676 0.918024 0.573879
/muse/elements/delta_absolute 1.301864 0.223091 0.602327 1.402883
/muse/elements/gamma_absolute 0.275403 0.753379 0.707841 0.277189
/muse/elements/theta_absolute 1.121538 0.146102 0.259024 1.220772
/muse/eeg 838.940002 812.620300 835.650024 822.490173
/muse/eeg 834.005005 812.620300 829.070068 817.555237
/muse/acc 308.594238 875.001343 367.188080
/muse/acc 312.500488 871.095093 367.188080
/muse/drlref 1625806.500000 1645161.250000
/muse/acc 312.500488 871.095093 367.188080
/muse/eeg 842.229919 792.880554 830.715088 825.780151
Unknown message         
	 Source: 'osc.udp://127.0.0.1:55693/'         
	 Address: '/muse/eeg/quantization'         
	 Types: 'iiii '         
	 Payload: '[1, 1, 1, 1]'
/muse/eeg 840.584961 825.780151 838.940002 825.780151
/muse/eeg 840.584961 815.910278 838.940002 822.490173
/muse/eeg 837.294983 802.750427 830.715088 825.780151
/muse/eeg 837.294983 809.330322 834.005005 820.845215
/muse/eeg 840.584961 817.555237 842.229919 824.135132
/muse/eeg 838.940002 842.229919 840.584961 819.200195
/muse/eeg 838.940002 825.780151 835.650024 822.490173
/muse/eeg 837.294983 812.620300 834.005005 820.845215
/muse/eeg 837.294983 801.105408 832.360046 817.555237
/muse/eeg 822.490173 832.360046 838.940002 804.395386
/muse/eeg 812.620300 827.425110 824.135132 791.235535
/muse/eeg 806.040344 819.200195 824.135132 786.300598
/muse/eeg 794.525513 807.685364 832.360046 783.010620
/muse/eeg 764.915833 820.845215 837.294983 750.111023
/muse/eeg 738.596191 837.294983 837.294983 723.791321
/muse/acc 316.406738 871.095093 367.188080
Unknown message         
	 Source: 'osc.udp://127.0.0.1:55693/'         
	 Address: '/muse/config'         
	 Types: 's '         
	 Payload: '['{"mac_addr":"000666A069D0","serial_number":"1160-UJMN-69D0","preset":"14","filters_enabled":true,"notch_frequency_hz":60,"battery_data_enabled":true,"compression_enabled":true,"eeg_sample_frequency_hz":3520,"eeg_output_frequency_hz":220,"eeg_channel_count":4,"eeg_samples_bitwidth":10,"eeg_channel_layout":"TP9 FP1 FP2 TP10 ","eeg_downsample":16,"afe_gain":1961,"battery_percent_remaining":36,"battery_millivolts":3724,"eeg_units":"EEG_MICROVOLTS","acc_units":"ACC_GFORCE","eeg_conversion_factor":1.644980342484907,"drlref_conversion_factor":3225.806451612903,"acc_conversion_factor":3.906256109482,"acc_sample_frequency_hz":50,"drlref_sample_frequency_hz":10,"acc_data_enabled":true,"drlref_data_enabled":true,"error_data_enabled":true}\n']'
Unknown message         
	 Source: 'osc.udp://127.0.0.1:55693/'         
	 Address: '/muse/version'         
	 Types: 's '         
	 Payload: '['{"hardware_version":"16.0.0","firmware_headset_version":"7.2.7","firmware_bootloader_version":"7.2.7","firmware_type":"Research","build_number":41,"protocol_version":2}\n']'
/muse/acc 312.500488 871.095093 367.188080
/muse/acc 316.406738 871.095093 371.094330
/muse/acc 316.406738 871.095093 371.094330
/muse/eeg 727.081299 824.135132 838.940002 710.631531
Unknown message         
	 Source: 'osc.udp://127.0.0.1:55693/'         
	 Address: '/muse/eeg/quantization'         
	 Types: 'iiii '         
	 Payload: '[1, 1, 1, 1]'
/muse/eeg 712.276489 820.845215 834.005005 692.536743
/muse/eeg 700.761597 799.460449 835.650024 690.891724
/muse/eeg 689.246765 817.555237 843.874939 674.441956
/muse/elements/alpha_relative 0.149915 0.168255 0.074367 0.190799
/muse/elements/beta_relative 0.079541 0.390282 0.399861 0.064561
/muse/elements/delta_relative 0.435227 0.084048 0.195019 0.429918
/muse/elements/gamma_relative 0.041457 0.287019 0.243933 0.031903
/muse/elements/theta_relative 0.293860 0.070396 0.086820 0.282819
/muse/elements/horseshoe 1.000000 1.000000 1.000000 1.000000
/muse/elements/is_good 1 1 1 1
/muse/elements/blink [0]
/muse/elements/jaw_clench [0]
/muse/elements/touching_forehead [1]
/muse/elements/experimental/concentration [0.27774080634117126]
/muse/elements/experimental/mellow [0.2655581533908844]
/muse/elements/low_freqs_absolute 1.519991 0.481537 0.765242 1.617182
/muse/elements/alpha_absolute 0.833057 0.518733 0.186623 1.044829
/muse/elements/beta_absolute 0.557801 0.884143 0.917150 0.574221
/muse/elements/delta_absolute 1.295927 0.217293 0.605317 1.397639
/muse/elements/gamma_absolute 0.274810 0.750676 0.702511 0.268090
/muse/elements/theta_absolute 1.125352 0.140315 0.253861 1.215761
/muse/eeg 695.826660 817.555237 840.584961 684.311829
/muse/eeg 689.246765 827.425110 848.809875 684.311829
/muse/eeg 685.956787 812.620300 822.490173 679.376892
/muse/eeg 684.311829 827.425110 824.135132 679.376892
/muse/eeg 685.956787 829.070068 840.584961 679.376892
/muse/eeg 705.696594 822.490173 834.005005 697.471680
/muse/eeg 708.986511 812.620300 837.294983 704.051575
/muse/eeg 720.501404 806.040344 835.650024 717.211426
/muse/eeg 722.146362 825.780151 847.164856 713.921448
/muse/eeg 718.856384 797.815491 842.229919 718.856384
/muse/eeg 745.176086 824.135132 842.229919 743.531128
/muse/eeg 761.625916 804.395386 842.229919 759.980896
/muse/acc 316.406738 875.001343 371.094330
/muse/drlref 1629032.250000 1645161.250000
/muse/acc 312.500488 871.095093 371.094330
/muse/acc 312.500488 871.095093 371.094330
/muse/acc 308.594238 871.095093 371.094330
/muse/eeg 748.466064 810.975281 830.715088 745.176086
Unknown message         
	 Source: 'osc.udp://127.0.0.1:55693/'         
	 Address: '/muse/eeg/quantization'         
	 Types: 'iiii '         
	 Payload: '[1, 1, 1, 1]'
/muse/eeg 766.560852 830.715088 863.614685 759.980896
/muse/eeg 789.590576 819.200195 871.839600 781.365662
/muse/eeg 792.880554 801.105408 843.874939 784.655640
/muse/eeg 801.105408 784.655640 835.650024 796.170471
/muse/eeg 797.815491 797.815491 827.425110 796.170471
/muse/eeg 804.395386 822.490173 815.910278 804.395386
/muse/eeg 812.620300 802.750427 847.164856 812.620300
/muse/eeg 815.910278 774.785767 858.679749 809.330322
/muse/eeg 810.975281 814.265259 871.839600 807.685364
/muse/elements/alpha_relative 0.146172 0.167989 0.073250 0.186016
/muse/elements/beta_relative 0.080211 0.393559 0.401560 0.064357
/muse/elements/delta_relative 0.434951 0.083045 0.197527 0.431637
/muse/elements/gamma_relative 0.040728 0.285458 0.242611 0.031373
/muse/elements/theta_relative 0.297939 0.069950 0.085052 0.286618
/muse/elements/horseshoe 1.000000 1.000000 1.000000 1.000000
/muse/elements/is_good 1 1 1 1
/muse/elements/blink [0]
/muse/elements/jaw_clench [0]
/muse/elements/touching_forehead [1]
/muse/elements/experimental/concentration [0.2612901031970978]
/muse/elements/experimental/mellow [0.2806849479675293]
/muse/elements/low_freqs_absolute 1.533232 0.478128 0.763054 1.631557
/muse/elements/alpha_absolute 0.833057 0.518733 0.176724 1.044829
/muse/elements/beta_absolute 0.572425 0.888462 0.915665 0.583872
/muse/elements/delta_absolute 1.306633 0.212764 0.607541 1.410397
/muse/elements/gamma_absolute 0.278090 0.748994 0.696826 0.271829
/muse/elements/theta_absolute 1.142321 0.138238 0.241597 1.232581
/muse/eeg 824.135132 814.265259 873.484558 820.845215
/muse/eeg 827.425110 812.620300 845.519897 825.780151
/muse/eeg 834.005005 791.235535 829.070068 834.005005
/muse/eeg 840.584961 807.685364 832.360046 837.294983
/muse/eeg 838.940002 802.750427 825.780151 835.650024
/muse/eeg 827.425110 799.460449 838.940002 827.425110
/muse/acc 312.500488 867.188843 371.094330
/muse/acc 308.594238 867.188843 371.094330
/muse/drlref 1629032.250000 1645161.250000
/muse/acc 308.594238 871.095093 371.094330
/muse/eeg 834.005005 809.330322 852.099792 834.005005
Unknown message         
	 Source: 'osc.udp://127.0.0.1:55693/'         
	 Address: '/muse/eeg/quantization'         
	 Types: 'iiii '         
	 Payload: '[1, 1, 1, 1]'
/muse/eeg 842.229919 776.430725 855.389771 843.874939
/muse/eeg 848.809875 825.780151 852.099792 842.229919
/muse/eeg 850.454834 794.525513 848.809875 845.519897
/muse/eeg 848.809875 801.105408 852.099792 843.874939
/muse/eeg 860.324707 794.525513 829.070068 857.034729
/muse/eeg 860.324707 812.620300 845.519897 857.034729
/muse/eeg 858.679749 825.780151 842.229919 853.744812
/muse/eeg 858.679749 792.880554 842.229919 850.454834
/muse/eeg 866.904663 789.590576 850.454834 858.679749
/muse/eeg 876.774536 789.590576 847.164856 870.194580
/muse/eeg 875.129517 824.135132 848.809875 861.969727
/muse/eeg 878.419495 799.460449 830.715088 861.969727
/muse/eeg 875.129517 802.750427 832.360046 863.614685
/muse/eeg 876.774536 791.235535 834.005005 865.259644
/muse/eeg 876.774536 799.460449 842.229919 855.389771
/muse/elements/alpha_relative 0.144484 0.167838 0.073791 0.183058
/muse/elements/beta_relative 0.082243 0.395990 0.404392 0.065142
/muse/elements/delta_relative 0.429133 0.082679 0.199387 0.429237
/muse/elements/gamma_relative 0.040546 0.283431 0.240452 0.031397
/muse/elements/theta_relative 0.303594 0.070062 0.081978 0.291166
/muse/elements/horseshoe 1.000000 1.000000 1.000000 1.000000
/muse/elements/is_good 1 1 1 1
/muse/elements/blink [0]
/muse/elements/jaw_clench [0]
/muse/elements/touching_forehead [1]
/muse/elements/experimental/concentration [0.24496594071388245]
/muse/elements/experimental/mellow [0.2958117723464966]
/muse/elements/low_freqs_absolute 1.538180 0.477798 0.757991 1.639817
/muse/elements/alpha_absolute 0.833057 0.518733 0.176724 1.044829
/muse/elements/beta_absolute 0.588339 0.891528 0.915524 0.596103
/muse/elements/delta_absolute 1.305830 0.211239 0.608418 1.414938
/muse/elements/gamma_absolute 0.281186 0.746291 0.689751 0.279132
/muse/elements/theta_absolute 1.155531 0.139324 0.222419 1.246382
/muse/acc 308.594238 871.095093 371.094330
/muse/acc 304.687988 871.095093 371.094330
/muse/acc 304.687988 875.001343 371.094330
/muse/acc 304.687988 875.001343 371.094330
/muse/eeg 888.289368 832.360046 853.744812 865.259644
Unknown message         
	 Source: 'osc.udp://127.0.0.1:55693/'         
	 Address: '/muse/eeg/quantization'         
	 Types: 'iiii '         
	 Payload: '[1, 1, 1, 1]'
/muse/eeg 894.869324 817.555237 840.584961 870.194580
/muse/eeg 888.289368 796.170471 824.135132 865.259644
/muse/eeg 893.224304 791.235535 829.070068 871.839600
/muse/eeg 893.224304 801.105408 845.519897 875.129517
/muse/eeg 894.869324 819.200195 842.229919 880.064453
/muse/eeg 893.224304 817.555237 819.200195 884.999451
/muse/eeg 883.354431 787.945557 822.490173 880.064453
/muse/eeg 880.064453 827.425110 843.874939 876.774536
/muse/eeg 870.194580 810.975281 840.584961 870.194580
/muse/eeg 873.484558 804.395386 847.164856 866.904663
/muse/eeg 886.644409 807.685364 825.780151 875.129517
/muse/eeg 878.419495 796.170471 827.425110 866.904663
/muse/eeg 865.259644 817.555237 843.874939 848.809875
/muse/eeg 868.549622 806.040344 847.164856 855.389771
/muse/eeg 873.484558 810.975281 835.650024 858.679749
/muse/eeg 876.774536 778.075684 817.555237 868.549622
/muse/acc 308.594238 875.001343 367.188080
/muse/drlref 1629032.250000 1641935.500000
/muse/acc 308.594238 878.907654 367.188080
/muse/acc 308.594238 871.095093 367.188080
/muse/acc 308.594238 867.188843 367.188080
/muse/eeg 875.129517 820.845215 832.360046 861.969727
Unknown message         
	 Source: 'osc.udp://127.0.0.1:55693/'         
	 Address: '/muse/eeg/quantization'         
	 Types: 'iiii '         
	 Payload: '[1, 1, 1, 1]'
/muse/eeg 871.839600 814.265259 830.715088 858.679749
/muse/eeg 878.419495 809.330322 834.005005 860.324707
/muse/eeg 875.129517 801.105408 837.294983 860.324707
/muse/eeg 876.774536 802.750427 840.584961 858.679749
/muse/elements/alpha_relative 0.145050 0.168266 0.074095 0.181456
/muse/elements/beta_relative 0.085192 0.396641 0.409028 0.066417
/muse/elements/delta_relative 0.415112 0.083518 0.200503 0.421344
/muse/elements/gamma_relative 0.040885 0.281364 0.238562 0.031872
/muse/elements/theta_relative 0.313762 0.070211 0.077811 0.298912
/muse/elements/horseshoe 1.000000 1.000000 1.000000 1.000000
/muse/elements/is_good 1 1 1 1
/muse/elements/blink [1]
/muse/elements/jaw_clench [0]
/muse/elements/touching_forehead [1]
/muse/elements/experimental/concentration [0.2287682741880417]
/muse/elements/experimental/mellow [0.3109385669231415]
/muse/elements/low_freqs_absolute 1.534192 0.479494 0.751472 1.643544
/muse/elements/alpha_absolute 0.833057 0.518733 0.176724 1.044829
/muse/elements/beta_absolute 0.601937 0.891135 0.918690 0.608335
/muse/elements/delta_absolute 1.289706 0.214519 0.609058 1.410694
/muse/elements/gamma_absolute 0.283101 0.742007 0.684538 0.289460
/muse/elements/theta_absolute 1.168140 0.139143 0.197977 1.261601
/muse/eeg 878.419495 825.780151 842.229919 858.679749
/muse/eeg 880.064453 832.360046 837.294983 860.324707
/muse/eeg 875.129517 806.040344 829.070068 857.034729
/muse/eeg 868.549622 787.945557 825.780151 858.679749
/muse/eeg 866.904663 834.005005 822.490173 855.389771
/muse/eeg 866.904663 796.170471 814.265259 850.454834
/muse/eeg 868.549622 806.040344 830.715088 847.164856
/muse/eeg 878.419495 797.815491 825.780151 857.034729
/muse/eeg 881.709473 819.200195 852.099792 860.324707
/muse/eeg 873.484558 825.780151 843.874939 857.034729
/muse/eeg 873.484558 814.265259 832.360046 858.679749
/muse/acc 312.500488 867.188843 367.188080
/muse/acc 308.594238 871.095093 371.094330
/muse/drlref 1629032.250000 1641935.500000
/muse/acc 308.594238 878.907654 371.094330
/muse/eeg 875.129517 809.330322 837.294983 857.034729
Unknown message         
	 Source: 'osc.udp://127.0.0.1:55693/'         
	 Address: '/muse/eeg/quantization'         
	 Types: 'iiii '         
	 Payload: '[1, 1, 1, 1]'
/muse/eeg 871.839600 774.785767 832.360046 853.744812
/muse/eeg 866.904663 801.105408 837.294983 852.099792
/muse/eeg 870.194580 802.750427 822.490173 857.034729
/muse/eeg 871.839600 817.555237 815.910278 858.679749
/muse/eeg 870.194580 817.555237 827.425110 848.809875
/muse/eeg 868.549622 830.715088 843.874939 850.454834
/muse/eeg 865.259644 832.360046 852.099792 842.229919
/muse/eeg 878.419495 819.200195 838.940002 855.389771
/muse/eeg 866.904663 810.975281 840.584961 855.389771
/muse/eeg 847.164856 799.460449 838.940002 838.940002
/muse/elements/alpha_relative 0.147167 0.166987 0.073796 0.179361
/muse/elements/beta_relative 0.088135 0.395213 0.413976 0.067006
/muse/elements/delta_relative 0.395105 0.087843 0.200983 0.412384
/muse/elements/gamma_relative 0.041510 0.280869 0.238917 0.032412
/muse/elements/theta_relative 0.328084 0.069088 0.072329 0.308837
/muse/elements/horseshoe 1.000000 1.000000 1.000000 1.000000
/muse/elements/is_good 1 1 1 1
/muse/elements/blink [0]
/muse/elements/jaw_clench [0]
/muse/elements/touching_forehead [1]
/muse/elements/experimental/concentration [0.21270492672920227]
/muse/elements/experimental/mellow [0.32606539130210876]
/muse/elements/low_freqs_absolute 1.524498 0.484577 0.745351 1.649169
/muse/elements/alpha_absolute 0.833057 0.511549 0.176724 1.044829
/muse/elements/beta_absolute 0.610396 0.885698 0.925668 0.617213
/muse/elements/delta_absolute 1.261959 0.232575 0.611852 1.406403
/muse/elements/gamma_absolute 0.283394 0.737370 0.686939 0.301812
/muse/elements/theta_absolute 1.181231 0.128272 0.168004 1.280829
/muse/eeg 847.164856 824.135132 843.874939 837.294983
/muse/eeg 855.389771 804.395386 830.715088 843.874939
/muse/eeg 860.324707 806.040344 822.490173 845.519897
/muse/eeg 863.614685 814.265259 822.490173 850.454834
/muse/eeg 845.519897 807.685364 838.940002 835.650024
/muse/acc 304.687988 882.813904 371.094330
/muse/acc 304.687988 875.001343 367.188080
/muse/acc 304.687988 871.095093 367.188080
/muse/acc 304.687988 871.095093 367.188080
/muse/eeg 842.229919 804.395386 845.519897 827.425110
Unknown message         
	 Source: 'osc.udp://127.0.0.1:55693/'         
	 Address: '/muse/eeg/quantization'         
	 Types: 'iiii '         
	 Payload: '[1, 1, 1, 1]'
/muse/eeg 850.454834 796.170471 842.229919 837.294983
/muse/eeg 857.034729 796.170471 838.940002 835.650024
/muse/eeg 863.614685 786.300598 835.650024 848.809875
/muse/eeg 853.744812 804.395386 827.425110 838.940002
/muse/eeg 852.099792 815.910278 830.715088 832.360046
/muse/eeg 861.969727 809.330322 832.360046 842.229919
/muse/eeg 868.549622 807.685364 827.425110 852.099792
/muse/eeg 857.034729 835.650024 838.940002 843.874939
/muse/eeg 853.744812 807.685364 835.650024 838.940002
/muse/eeg 850.454834 802.750427 827.425110 835.650024
/muse/eeg 848.809875 801.105408 830.715088 837.294983
/muse/eeg 847.164856 801.105408 832.360046 840.584961
/muse/eeg 842.229919 822.490173 837.294983 835.650024
/muse/eeg 852.099792 812.620300 835.650024 843.874939
/muse/eeg 853.744812 810.975281 827.425110 842.229919
/muse/acc 308.594238 871.095093 367.188080
/muse/drlref 1629032.250000 1641935.500000
/muse/acc 308.594238 871.095093 367.188080
/muse/acc 312.500488 871.095093 367.188080
/muse/eeg 855.389771 786.300598 814.265259 845.519897
/muse/elements/alpha_relative 0.148497 0.152898 0.072954 0.175199
/muse/elements/beta_relative 0.089835 0.395870 0.417922 0.065735
/muse/elements/delta_relative 0.374087 0.097970 0.200318 0.406788
/muse/elements/gamma_relative 0.042273 0.286533 0.243077 0.032695
/muse/elements/theta_relative 0.345308 0.066728 0.065729 0.319584
/muse/elements/horseshoe 1.000000 1.000000 1.000000 1.000000
/muse/elements/is_good 1 1 1 1
/muse/elements/blink [0]
/muse/elements/jaw_clench [0]
/muse/elements/touching_forehead [1]
/muse/elements/experimental/concentration [0.19677002727985382]
/muse/elements/experimental/mellow [0.34119218587875366]
/muse/elements/low_freqs_absolute 1.514571 0.494235 0.738634 1.662454
/muse/elements/alpha_absolute 0.829320 0.461947 0.176724 1.044829
/muse/elements/beta_absolute 0.611049 0.875098 0.934772 0.619090
/muse/elements/delta_absolute 1.230577 0.268640 0.615395 1.410663
/muse/elements/gamma_absolute 0.283672 0.734720 0.699420 0.315774
/muse/elements/theta_absolute 1.195810 0.101856 0.131432 1.305880
Unknown message         
	 Source: 'osc.udp://127.0.0.1:55693/'         
	 Address: '/muse/eeg/quantization'         
	 Types: 'iiii '         
	 Payload: '[1, 1, 1, 1]'
/muse/eeg 853.744812 829.070068 827.425110 843.874939
/muse/eeg 850.454834 812.620300 834.005005 838.940002
/muse/eeg 847.164856 804.395386 829.070068 835.650024
/muse/eeg 852.099792 806.040344 835.650024 840.584961
/muse/eeg 855.389771 801.105408 837.294983 843.874939
/muse/eeg 845.519897 819.200195 834.005005 835.650024
/muse/eeg 843.874939 819.200195 832.360046 830.715088
/muse/eeg 858.679749 801.105408 838.940002 843.874939
/muse/eeg 853.744812 815.910278 840.584961 843.874939
/muse/eeg 840.584961 827.425110 829.070068 829.070068
/muse/eeg 840.584961 806.040344 832.360046 827.425110
/muse/eeg 847.164856 819.200195 845.519897 837.294983
/muse/eeg 853.744812 791.235535 837.294983 845.519897
/muse/eeg 848.809875 801.105408 842.229919 840.584961
/muse/eeg 845.519897 827.425110 834.005005 830.715088
/muse/acc 316.406738 871.095093 371.094330
/muse/acc 312.500488 871.095093 371.094330
/muse/acc 308.594238 875.001343 367.188080
/muse/drlref 1629032.250000 1645161.250000
/muse/acc 312.500488 867.188843 367.188080
/muse/eeg 852.099792 807.685364 822.490173 838.940002
Unknown message         
	 Source: 'osc.udp://127.0.0.1:55693/'         
	 Address: '/muse/eeg/quantization'         
	 Types: 'iiii '         
	 Payload: '[1, 1, 1, 1]'
/muse/eeg 853.744812 820.845215 829.070068 838.940002
/muse/eeg 842.229919 794.525513 842.229919 837.294983
/muse/eeg 838.940002 796.170471 834.005005 834.005005
/muse/eeg 845.519897 804.395386 835.650024 835.650024
/muse/eeg 848.809875 789.590576 830.715088 840.584961
/muse/eeg 845.519897 810.975281 840.584961 837.294983
/muse/elements/alpha_relative 0.148749 0.117342 0.071331 0.169956
/muse/elements/beta_relative 0.089517 0.403643 0.422525 0.062633
/muse/elements/delta_relative 0.359907 0.113998 0.196564 0.408714
/muse/elements/gamma_relative 0.043028 0.301099 0.250990 0.032674
/muse/elements/theta_relative 0.358799 0.063918 0.058590 0.326022
/muse/elements/horseshoe 1.000000 1.000000 1.000000 1.000000
/muse/elements/is_good 1 1 1 1
/muse/elements/blink [0]
/muse/elements/jaw_clench [0]
/muse/elements/touching_forehead [1]
/muse/elements/experimental/concentration [0.1810920536518097]
/muse/elements/experimental/mellow [0.3561979830265045]
/muse/elements/low_freqs_absolute 1.507398 0.505716 0.724046 1.680622
/muse/elements/alpha_absolute 0.823301 0.324955 0.170523 1.044829
/muse/elements/beta_absolute 0.602752 0.861498 0.943097 0.611297
/muse/elements/delta_absolute 1.207037 0.312400 0.610747 1.425910
/muse/elements/gamma_absolute 0.284601 0.734211 0.716900 0.328694
/muse/elements/theta_absolute 1.205697 0.061123 0.085070 1.327738
/muse/eeg 840.584961 814.265259 842.229919 835.650024
/muse/eeg 838.940002 832.360046 830.715088 827.425110
/muse/eeg 843.874939 819.200195 827.425110 835.650024
/muse/eeg 845.519897 802.750427 832.360046 845.519897
/muse/eeg 842.229919 820.845215 843.874939 835.650024
/muse/eeg 834.005005 812.620300 840.584961 827.425110
/muse/eeg 834.005005 791.235535 820.845215 825.780151
/muse/eeg 834.005005 817.555237 820.845215 822.490173
/muse/eeg 843.874939 797.815491 825.780151 830.715088
/muse/acc 312.500488 867.188843 367.188080
/muse/acc 308.594238 875.001343 367.188080
/muse/batt 3631 3724 3726 37
/muse/acc 308.594238 878.907654 367.188080
/muse/acc 312.500488 875.001343 367.188080
/muse/eeg 840.584961 829.070068 840.584961 827.425110
Unknown message         
	 Source: 'osc.udp://127.0.0.1:55693/'         
	 Address: '/muse/eeg/quantization'         
	 Types: 'iiii '         
	 Payload: '[1, 1, 1, 1]'
/muse/eeg 838.940002 827.425110 834.005005 820.845215
/muse/eeg 848.809875 802.750427 829.070068 832.360046
/muse/eeg 857.034729 815.910278 850.454834 843.874939
/muse/eeg 861.969727 820.845215 858.679749 852.099792
/muse/eeg 842.229919 834.005005 843.874939 832.360046
/muse/eeg 842.229919 815.910278 824.135132 830.715088
/muse/eeg 843.874939 809.330322 819.200195 830.715088
/muse/eeg 834.005005 784.655640 815.910278 820.845215
/muse/eeg 832.360046 814.265259 837.294983 817.555237
/muse/eeg 837.294983 807.685364 840.584961 822.490173
/muse/eeg 835.650024 810.975281 822.490173 822.490173
/muse/eeg 837.294983 819.200195 824.135132 822.490173
/muse/elements/alpha_relative 0.150803 0.089608 0.070466 0.168215
/muse/elements/beta_relative 0.088379 0.408031 0.430093 0.059485
/muse/elements/delta_relative 0.354222 0.128899 0.186936 0.414496
/muse/elements/gamma_relative 0.044214 0.313866 0.260978 0.032931
/muse/elements/theta_relative 0.362382 0.059596 0.051528 0.324873
/muse/elements/horseshoe 1.000000 1.000000 1.000000 1.000000
/muse/elements/is_good 1 1 1 1
/muse/elements/blink [0]
/muse/elements/jaw_clench [0]
/muse/elements/touching_forehead [1]
/muse/elements/experimental/concentration [0.16541408002376556]
/muse/elements/experimental/mellow [0.37120378017425537]
/muse/elements/low_freqs_absolute 1.495145 0.512910 0.691824 1.687824
/muse/elements/alpha_absolute 0.818275 0.189957 0.162380 1.044829
/muse/elements/beta_absolute 0.586216 0.848305 0.947964 0.593374
/muse/elements/delta_absolute 1.189141 0.347860 0.586094 1.436483
/muse/elements/gamma_absolute 0.285423 0.734356 0.731005 0.336562
/muse/elements/theta_absolute 1.199032 0.012827 0.026442 1.330676
/muse/eeg 843.874939 824.135132 832.360046 832.360046
/muse/eeg 840.584961 837.294983 838.940002 822.490173
/muse/eeg 843.874939 817.555237 848.809875 829.070068
/muse/acc 316.406738 871.095093 367.188080
/muse/drlref 1629032.250000 1645161.250000
/muse/acc 316.406738 871.095093 363.281830
/muse/acc 316.406738 871.095093 363.281830
/muse/eeg 852.099792 809.330322 855.389771 842.229919
Unknown message         
	 Source: 'osc.udp://127.0.0.1:55693/'         
	 Address: '/muse/eeg/quantization'         
	 Types: 'iiii '         
	 Payload: '[1, 1, 1, 1]'
/muse/eeg 855.389771 792.880554 838.940002 838.940002
/muse/eeg 840.584961 822.490173 837.294983 825.780151
/muse/eeg 834.005005 791.235535 812.620300 819.200195
/muse/eeg 837.294983 812.620300 814.265259 814.265259
/muse/eeg 838.940002 815.910278 829.070068 820.845215
/muse/eeg 845.519897 806.040344 830.715088 830.715088
/muse/eeg 835.650024 820.845215 827.425110 820.845215
/muse/eeg 838.940002 824.135132 824.135132 820.845215
/muse/eeg 850.454834 819.200195 837.294983 830.715088
/muse/eeg 847.164856 814.265259 847.164856 827.425110
/muse/eeg 843.874939 829.070068 848.809875 829.070068
/muse/eeg 847.164856 810.975281 829.070068 834.005005
/muse/eeg 845.519897 810.975281 815.910278 829.070068
/muse/eeg 845.519897 796.170471 822.490173 829.070068
/muse/eeg 840.584961 804.395386 837.294983 824.135132
/muse/acc 316.406738 871.095093 363.281830
/muse/acc 316.406738 875.001343 367.188080
/muse/acc 316.406738 875.001343 367.188080
/muse/drlref 1625806.500000 1641935.500000
/muse/acc 316.406738 875.001343 367.188080
/muse/eeg 848.809875 824.135132 842.229919 829.070068
Unknown message         
	 Source: 'osc.udp://127.0.0.1:55693/'         
	 Address: '/muse/eeg/quantization'         
	 Types: 'iiii '         
	 Payload: '[1, 1, 1, 1]'
/muse/eeg 843.874939 820.845215 825.780151 824.135132
/muse/eeg 837.294983 810.975281 822.490173 822.490173
/muse/elements/alpha_relative 0.152870 0.094308 0.069258 0.173014
/muse/elements/beta_relative 0.089929 0.401512 0.442969 0.059008
/muse/elements/delta_relative 0.353442 0.134001 0.170687 0.417153
/muse/elements/gamma_relative 0.047321 0.315444 0.271595 0.034498
/muse/elements/theta_relative 0.356438 0.054735 0.045491 0.316327
/muse/elements/horseshoe 1.000000 1.000000 1.000000 1.000000
/muse/elements/is_good 1 1 1 1
/muse/elements/blink [0]
/muse/elements/jaw_clench [0]
/muse/elements/touching_forehead [1]
/muse/elements/experimental/concentration [0.14973609149456024]
/muse/elements/experimental/mellow [0.38575273752212524]
/muse/elements/low_freqs_absolute 1.461139 0.510059 0.636611 1.663127
/muse/elements/alpha_absolute 0.794277 0.208755 0.142268 1.035820
/muse/elements/beta_absolute 0.563855 0.837903 0.948172 0.568647
/muse/elements/delta_absolute 1.158272 0.361314 0.534000 1.418034
/muse/elements/gamma_absolute 0.285013 0.733128 0.735720 0.335536
/muse/elements/theta_absolute 1.161938 -0.027533 -0.040274 1.297875
/muse/eeg 850.454834 792.880554 834.005005 835.650024
/muse/eeg 842.229919 799.460449 830.715088 829.070068
/muse/eeg 837.294983 817.555237 842.229919 829.070068
/muse/eeg 838.940002 817.555237 830.715088 830.715088
/muse/eeg 845.519897 801.105408 824.135132 835.650024
/muse/eeg 845.519897 829.070068 838.940002 832.360046
/muse/eeg 845.519897 799.460449 832.360046 827.425110
/muse/eeg 842.229919 807.685364 840.584961 824.135132
/muse/eeg 852.099792 804.395386 835.650024 835.650024
/muse/eeg 853.744812 806.040344 838.940002 838.940002
/muse/eeg 848.809875 822.490173 837.294983 832.360046
/muse/eeg 850.454834 810.975281 832.360046 832.360046
/muse/eeg 847.164856 835.650024 845.519897 829.070068
/muse/eeg 861.969727 807.685364 842.229919 840.584961
/muse/acc 316.406738 871.095093 367.188080
/muse/acc 316.406738 875.001343 363.281830
/muse/acc 312.500488 875.001343 363.281830
/muse/acc 312.500488 871.095093 363.281830
/muse/eeg 855.389771 843.874939 842.229919 832.360046
Unknown message         
	 Source: 'osc.udp://127.0.0.1:55693/'         
	 Address: '/muse/eeg/quantization'         
	 Types: 'iiii '         
	 Payload: '[1, 1, 1, 1]'
/muse/eeg 852.099792 812.620300 820.845215 830.715088
/muse/eeg 840.584961 802.750427 824.135132 820.845215
/muse/eeg 835.650024 797.815491 830.715088 819.200195
/muse/eeg 834.005005 796.170471 827.425110 819.200195
/muse/eeg 850.454834 837.294983 842.229919 835.650024
/muse/eeg 848.809875 824.135132 829.070068 832.360046
/muse/eeg 834.005005 817.555237 819.200195 814.265259
/muse/elements/alpha_relative 0.152360 0.116470 0.070128 0.183359
/muse/elements/beta_relative 0.098287 0.391698 0.458797 0.064229
/muse/elements/delta_relative 0.351959 0.130018 0.150397 0.413114
/muse/elements/gamma_relative 0.054090 0.310359 0.280161 0.038563
/muse/elements/theta_relative 0.343304 0.051454 0.040517 0.300735
/muse/elements/horseshoe 1.000000 1.000000 1.000000 1.000000
/muse/elements/is_good 1 1 1 1
/muse/elements/blink [0]
/muse/elements/jaw_clench [0]
/muse/elements/touching_forehead [1]
/muse/elements/experimental/concentration [0.1339314877986908]
/muse/elements/experimental/mellow [0.3992941081523895]
/muse/elements/low_freqs_absolute 1.389545 0.496611 0.563738 1.589826
/muse/elements/alpha_absolute 0.730266 0.304015 0.128795 0.999521
/muse/elements/beta_absolute 0.539892 0.830752 0.944521 0.543950
/muse/elements/delta_absolute 1.093888 0.351805 0.460140 1.352290
/muse/elements/gamma_absolute 0.280516 0.729665 0.730308 0.322392
/muse/elements/theta_absolute 1.083074 -0.050781 -0.109465 1.214404
/muse/eeg 840.584961 804.395386 822.490173 820.845215
/muse/eeg 842.229919 837.294983 843.874939 819.200195
/muse/eeg 847.164856 832.360046 837.294983 829.070068
/muse/eeg 840.584961 822.490173 840.584961 822.490173
/muse/eeg 840.584961 814.265259 829.070068 819.200195
/muse/eeg 834.005005 819.200195 809.330322 810.975281
/muse/eeg 830.715088 809.330322 812.620300 807.685364
/muse/eeg 837.294983 824.135132 825.780151 809.330322
/muse/drlref 1629032.250000 1641935.500000
/muse/acc 312.500488 871.095093 363.281830
/muse/acc 316.406738 871.095093 363.281830
Unknown message         
	 Source: 'osc.udp://127.0.0.1:55693/'         
	 Address: '/muse/config'         
	 Types: 's '         
	 Payload: '['{"mac_addr":"000666A069D0","serial_number":"1160-UJMN-69D0","preset":"14","filters_enabled":true,"notch_frequency_hz":60,"battery_data_enabled":true,"compression_enabled":true,"eeg_sample_frequency_hz":3520,"eeg_output_frequency_hz":220,"eeg_channel_count":4,"eeg_samples_bitwidth":10,"eeg_channel_layout":"TP9 FP1 FP2 TP10 ","eeg_downsample":16,"afe_gain":1961,"battery_percent_remaining":36,"battery_millivolts":3724,"eeg_units":"EEG_MICROVOLTS","acc_units":"ACC_GFORCE","eeg_conversion_factor":1.644980342484907,"drlref_conversion_factor":3225.806451612903,"acc_conversion_factor":3.906256109482,"acc_sample_frequency_hz":50,"drlref_sample_frequency_hz":10,"acc_data_enabled":true,"drlref_data_enabled":true,"error_data_enabled":true}\n']'
Unknown message         
	 Source: 'osc.udp://127.0.0.1:55693/'         
	 Address: '/muse/version'         
	 Types: 's '         
	 Payload: '['{"hardware_version":"16.0.0","firmware_headset_version":"7.2.7","firmware_bootloader_version":"7.2.7","firmware_type":"Research","build_number":41,"protocol_version":2}\n']'
/muse/acc 316.406738 871.095093 363.281830
/muse/eeg 840.584961 845.519897 819.200195 812.620300
Unknown message         
	 Source: 'osc.udp://127.0.0.1:55693/'         
	 Address: '/muse/eeg/quantization'         
	 Types: 'iiii '         
	 Payload: '[1, 1, 1, 1]'
/muse/eeg 853.744812 815.910278 819.200195 825.780151
/muse/eeg 845.519897 863.614685 827.425110 812.620300
/muse/eeg 850.454834 812.620300 817.555237 824.135132
/muse/eeg 848.809875 820.845215 810.975281 817.555237
/muse/eeg 850.454834 827.425110 801.105408 822.490173
/muse/eeg 847.164856 840.584961 822.490173 819.200195
/muse/eeg 845.519897 853.744812 822.490173 814.265259
/muse/eeg 853.744812 829.070068 825.780151 824.135132
/muse/eeg 850.454834 815.910278 825.780151 824.135132
/muse/eeg 847.164856 815.910278 822.490173 822.490173
/muse/eeg 853.744812 842.229919 843.874939 822.490173
/muse/eeg 848.809875 820.845215 832.360046 824.135132
/muse/eeg 845.519897 819.200195 825.780151 820.845215
/muse/elements/alpha_relative 0.144766 0.128689 0.070010 0.176798
/muse/elements/beta_relative 0.118496 0.388977 0.474002 0.081469
/muse/elements/delta_relative 0.343045 0.123555 0.131596 0.408595
/muse/elements/gamma_relative 0.066985 0.307892 0.286835 0.048009
/muse/elements/theta_relative 0.326708 0.050887 0.037558 0.285129
/muse/elements/horseshoe 1.000000 1.000000 1.000000 1.000000
/muse/elements/is_good 1 1 1 1
/muse/elements/blink [0]
/muse/elements/jaw_clench [0]
/muse/elements/touching_forehead [1]
/muse/elements/experimental/concentration [0.11761687695980072]
/muse/elements/experimental/mellow [0.40992963314056396]
/muse/elements/low_freqs_absolute 1.271285 0.477759 0.491171 1.456666
/muse/elements/alpha_absolute 0.606036 0.345652 0.108050 0.862956
/muse/elements/beta_absolute 0.519074 0.826033 0.938670 0.526473
/muse/elements/delta_absolute 0.980722 0.327968 0.382132 1.226772
/muse/elements/gamma_absolute 0.271351 0.724508 0.720522 0.296804
/muse/elements/theta_absolute 0.959531 -0.057286 -0.162408 1.070520
/muse/eeg 857.034729 799.460449 810.975281 832.360046
/muse/eeg 857.034729 815.910278 812.620300 837.294983
/muse/acc 320.312988 871.095093 363.281830
/muse/acc 320.312988 871.095093 363.281830
/muse/acc 320.312988 871.095093 363.281830
/muse/drlref 1629032.250000 1641935.500000
/muse/acc 316.406738 871.095093 363.281830
/muse/eeg 853.744812 825.780151 812.620300 825.780151
Unknown message         
	 Source: 'osc.udp://127.0.0.1:55693/'         
	 Address: '/muse/eeg/quantization'         
	 Types: 'iiii '         
	 Payload: '[1, 1, 1, 1]'
/muse/eeg 847.164856 832.360046 829.070068 817.555237
/muse/eeg 857.034729 845.519897 838.940002 824.135132
/muse/eeg 865.259644 817.555237 840.584961 832.360046
/muse/eeg 861.969727 832.360046 840.584961 832.360046
/muse/eeg 860.324707 827.425110 827.425110 837.294983
/muse/eeg 865.259644 822.490173 830.715088 845.519897
/muse/eeg 858.679749 812.620300 822.490173 842.229919
/muse/eeg 842.229919 835.650024 819.200195 832.360046
/muse/eeg 845.519897 819.200195 815.910278 834.005005
/muse/eeg 843.874939 827.425110 827.425110 829.070068
/muse/eeg 848.809875 807.685364 838.940002 834.005005
/muse/eeg 850.454834 802.750427 835.650024 837.294983
/muse/eeg 852.099792 822.490173 825.780151 832.360046
/muse/eeg 848.809875 829.070068 830.715088 830.715088
/muse/eeg 853.744812 824.135132 843.874939 832.360046
/muse/acc 320.312988 871.095093 363.281830
/muse/acc 316.406738 878.907654 363.281830
/muse/acc 320.312988 871.095093 363.281830
/muse/acc 320.312988 867.188843 363.281830
/muse/eeg 853.744812 801.105408 832.360046 834.005005
Unknown message         
	 Source: 'osc.udp://127.0.0.1:55693/'         
	 Address: '/muse/eeg/quantization'         
	 Types: 'iiii '         
	 Payload: '[1, 1, 1, 1]'
/muse/eeg 852.099792 842.229919 838.940002 832.360046
/muse/eeg 865.259644 809.330322 830.715088 843.874939
/muse/eeg 847.164856 801.105408 815.910278 827.425110
/muse/elements/alpha_relative 0.136279 0.131467 0.066587 0.155675
/muse/elements/beta_relative 0.152954 0.391290 0.484240 0.118931
/muse/elements/delta_relative 0.319254 0.119041 0.120054 0.399483
/muse/elements/gamma_relative 0.086752 0.306727 0.292887 0.065514
/muse/elements/theta_relative 0.304762 0.051475 0.036232 0.260397
/muse/elements/horseshoe 1.000000 1.000000 1.000000 1.000000
/muse/elements/is_good 1 1 1 1
/muse/elements/blink [0]
/muse/elements/jaw_clench [0]
/muse/elements/touching_forehead [1]
/muse/elements/experimental/concentration [0.10091687738895416]
/muse/elements/experimental/mellow [0.39986756443977356]
/muse/elements/low_freqs_absolute 1.115233 0.463162 0.440925 1.262005
/muse/elements/alpha_absolute 0.454464 0.350213 0.070392 0.634758
/muse/elements/beta_absolute 0.504596 0.823895 0.932065 0.517835
/muse/elements/delta_absolute 0.824173 0.307093 0.326380 1.044038
/muse/elements/gamma_absolute 0.258314 0.718150 0.713705 0.258872
/muse/elements/theta_absolute 0.803998 -0.057004 -0.193900 0.858176
/muse/eeg 832.360046 789.590576 802.750427 815.910278
/muse/eeg 837.294983 814.265259 822.490173 817.555237
/muse/eeg 834.005005 838.940002 834.005005 810.975281
/muse/eeg 834.005005 829.070068 838.940002 809.330322
/muse/eeg 843.874939 812.620300 843.874939 819.200195
/muse/eeg 847.164856 804.395386 840.584961 829.070068
/muse/eeg 842.229919 834.005005 842.229919 820.845215
/muse/eeg 842.229919 817.555237 840.584961 819.200195
/muse/eeg 838.940002 815.910278 835.650024 812.620300
/muse/eeg 848.809875 802.750427 829.070068 825.780151
/muse/eeg 838.940002 807.685364 825.780151 824.135132
/muse/eeg 832.360046 822.490173 835.650024 817.555237
/muse/drlref 1629032.250000 1641935.500000
/muse/acc 324.219269 867.188843 367.188080
/muse/acc 324.219269 871.095093 367.188080
/muse/acc 320.312988 878.907654 367.188080
/muse/eeg 842.229919 820.845215 840.584961 825.780151
Unknown message         
	 Source: 'osc.udp://127.0.0.1:55693/'         
	 Address: '/muse/eeg/quantization'         
	 Types: 'iiii '         
	 Payload: '[1, 1, 1, 1]'
/muse/eeg 842.229919 822.490173 837.294983 820.845215
/muse/eeg 847.164856 796.170471 840.584961 835.650024
/muse/eeg 843.874939 830.715088 835.650024 835.650024
/muse/eeg 845.519897 815.910278 829.070068 832.360046
/muse/eeg 850.454834 829.070068 825.780151 835.650024
/muse/eeg 861.969727 812.620300 832.360046 842.229919
/muse/eeg 848.809875 820.845215 838.940002 830.715088
/muse/eeg 837.294983 827.425110 837.294983 820.845215
/muse/eeg 832.360046 812.620300 845.519897 819.200195
/muse/elements/alpha_relative 0.136279 0.133685 0.054976 0.155675
/muse/elements/beta_relative 0.152954 0.393418 0.489516 0.118931
/muse/elements/delta_relative 0.319254 0.118866 0.117087 0.399483
/muse/elements/gamma_relative 0.086752 0.301776 0.301210 0.065514
/muse/elements/theta_relative 0.304762 0.052255 0.037211 0.260397
/muse/elements/horseshoe 1.000000 1.000000 1.000000 1.000000
/muse/elements/is_good 0 1 1 0
/muse/elements/blink [0]
/muse/elements/jaw_clench [0]
/muse/elements/touching_forehead [1]
/muse/elements/experimental/concentration [0.0842168778181076]
/muse/elements/experimental/mellow [0.38980546593666077]
/muse/elements/low_freqs_absolute 1.115233 0.464070 0.423541 1.262005
/muse/elements/alpha_absolute 0.454464 0.356851 -0.024646 0.634758
/muse/elements/beta_absolute 0.504596 0.825622 0.924947 0.517835
/muse/elements/delta_absolute 0.824173 0.305825 0.303688 1.044038
/muse/elements/gamma_absolute 0.258314 0.710452 0.714049 0.258872
/muse/elements/theta_absolute 0.803998 -0.051107 -0.194143 0.858176
/muse/eeg 835.650024 806.040344 847.164856 819.200195
/muse/eeg 843.874939 814.265259 840.584961 824.135132
/muse/eeg 845.519897 837.294983 848.809875 829.070068
/muse/eeg 842.229919 812.620300 837.294983 824.135132
/muse/eeg 845.519897 812.620300 830.715088 825.780151
/muse/eeg 852.099792 792.880554 834.005005 837.294983
/muse/acc 316.406738 878.907654 363.281830
/muse/acc 316.406738 875.001343 363.281830
/muse/acc 316.406738 867.188843 359.375549
/muse/drlref 1629032.250000 1641935.500000
/muse/acc 316.406738 867.188843 359.375549
/muse/eeg 843.874939 807.685364 842.229919 827.425110
Unknown message         
	 Source: 'osc.udp://127.0.0.1:55693/'         
	 Address: '/muse/eeg/quantization'         
	 Types: 'iiii '         
	 Payload: '[1, 1, 1, 1]'
/muse/eeg 837.294983 820.845215 837.294983 824.135132
/muse/eeg 843.874939 804.395386 820.845215 832.360046
/muse/eeg 843.874939 802.750427 812.620300 825.780151
/muse/eeg 840.584961 799.460449 834.005005 822.490173
/muse/eeg 827.425110 819.200195 837.294983 815.910278
/muse/eeg 838.940002 829.070068 860.324707 825.780151
/muse/eeg 847.164856 807.685364 838.940002 837.294983
/muse/eeg 840.584961 787.945557 820.845215 829.070068
/muse/eeg 847.164856 822.490173 842.229919 827.425110
/muse/eeg 845.519897 809.330322 832.360046 829.070068
/muse/eeg 848.809875 824.135132 830.715088 834.005005
/muse/eeg 845.519897 797.815491 827.425110 832.360046
/muse/eeg 843.874939 801.105408 834.005005 829.070068
/muse/eeg 845.519897 829.070068 843.874939 829.070068
/muse/eeg 835.650024 829.070068 840.584961 824.135132
/muse/elements/alpha_relative 0.136279 0.139456 0.046698 0.155675
/muse/elements/beta_relative 0.152954 0.392022 0.485976 0.118931
/muse/elements/delta_relative 0.319254 0.124560 0.119527 0.399483
/muse/elements/gamma_relative 0.086752 0.291070 0.307677 0.065514
/muse/elements/theta_relative 0.304762 0.052892 0.040122 0.260397
/muse/elements/horseshoe 1.000000 1.000000 1.000000 1.000000
/muse/elements/is_good 0 1 1 0
/muse/elements/blink [0]
/muse/elements/jaw_clench [0]
/muse/elements/touching_forehead [1]
/muse/elements/experimental/concentration [0.06751687824726105]
/muse/elements/experimental/mellow [0.37974339723587036]
/muse/elements/low_freqs_absolute 1.115233 0.487159 0.434628 1.262005
/muse/elements/alpha_absolute 0.454464 0.382515 -0.099242 0.634758
/muse/elements/beta_absolute 0.504596 0.831387 0.918076 0.517835
/muse/elements/delta_absolute 0.824173 0.333455 0.308928 1.044038
/muse/elements/gamma_absolute 0.258314 0.702074 0.719557 0.258872
/muse/elements/theta_absolute 0.803998 -0.038530 -0.165155 0.858176
/muse/acc 316.406738 871.095093 359.375549
/muse/acc 316.406738 871.095093 359.375549
/muse/acc 320.312988 875.001343 363.281830
/muse/eeg 843.874939 799.460449 837.294983 834.005005
Unknown message         
	 Source: 'osc.udp://127.0.0.1:55693/'         
	 Address: '/muse/eeg/quantization'         
	 Types: 'iiii '         
	 Payload: '[1, 1, 1, 1]'
/muse/eeg 857.034729 804.395386 824.135132 845.519897
/muse/eeg 843.874939 814.265259 829.070068 835.650024
/muse/eeg 830.715088 797.815491 812.620300 817.555237
/muse/eeg 830.715088 819.200195 822.490173 817.555237
/muse/eeg 829.070068 809.330322 835.650024 819.200195
/muse/eeg 837.294983 809.330322 843.874939 827.425110
/muse/eeg 837.294983 815.910278 853.744812 829.070068
/muse/eeg 835.650024 830.715088 843.874939 824.135132
/muse/eeg 837.294983 801.105408 822.490173 829.070068
/muse/eeg 837.294983 799.460449 824.135132 822.490173
/muse/eeg 825.780151 820.845215 845.519897 817.555237
/muse/eeg 830.715088 802.750427 825.780151 820.845215
/muse/eeg 840.584961 814.265259 832.360046 825.780151
/muse/eeg 838.940002 802.750427 837.294983 829.070068
/muse/eeg 832.360046 822.490173 834.005005 822.490173
/muse/acc 320.312988 875.001343 363.281830
/muse/drlref 1629032.250000 1645161.250000
/muse/acc 320.312988 871.095093 363.281830
/muse/acc 316.406738 875.001343 359.375549
/muse/acc 316.406738 871.095093 359.375549
/muse/eeg 837.294983 809.330322 838.940002 829.070068
Unknown message         
	 Source: 'osc.udp://127.0.0.1:55693/'         
	 Address: '/muse/eeg/quantization'         
	 Types: 'iiii '         
	 Payload: '[1, 1, 1, 1]'
/muse/eeg 832.360046 804.395386 843.874939 829.070068
/muse/eeg 830.715088 802.750427 820.845215 829.070068
/muse/eeg 834.005005 789.590576 822.490173 829.070068
/muse/eeg 834.005005 814.265259 843.874939 825.780151
/muse/eeg 832.360046 817.555237 825.780151 822.490173
/muse/elements/alpha_relative 0.136279 0.142547 0.043657 0.155675
/muse/elements/beta_relative 0.152954 0.388486 0.477054 0.118931
/muse/elements/delta_relative 0.319254 0.136582 0.125926 0.399483
/muse/elements/gamma_relative 0.086752 0.278207 0.309664 0.065514
/muse/elements/theta_relative 0.304762 0.054177 0.043699 0.260397
/muse/elements/horseshoe 1.000000 1.000000 1.000000 1.000000
/muse/elements/is_good 0 1 1 0
/muse/elements/blink [0]
/muse/elements/jaw_clench [0]
/muse/elements/touching_forehead [1]
/muse/elements/experimental/concentration [0.05081687867641449]
/muse/elements/experimental/mellow [0.36968132853507996]
/muse/elements/low_freqs_absolute 1.115233 0.530423 0.465245 1.262005
/muse/elements/alpha_absolute 0.454464 0.403897 -0.124185 0.634758
/muse/elements/beta_absolute 0.504596 0.839312 0.914324 0.517835
/muse/elements/delta_absolute 0.824173 0.385331 0.335871 1.044038
/muse/elements/gamma_absolute 0.258314 0.694305 0.726648 0.258872
/muse/elements/theta_absolute 0.803998 -0.016245 -0.123775 0.858176
/muse/eeg 830.715088 802.750427 815.910278 820.845215
/muse/eeg 837.294983 809.330322 825.780151 825.780151
/muse/eeg 838.940002 825.780151 837.294983 824.135132
/muse/eeg 835.650024 820.845215 845.519897 819.200195
/muse/eeg 832.360046 804.395386 838.940002 815.910278
/muse/eeg 835.650024 802.750427 830.715088 819.200195
/muse/eeg 832.360046 810.975281 832.360046 819.200195
/muse/eeg 838.940002 814.265259 832.360046 829.070068
/muse/eeg 847.164856 810.975281 834.005005 835.650024
/muse/eeg 842.229919 840.584961 832.360046 825.780151
/muse/eeg 842.229919 783.010620 825.780151 827.425110
/muse/acc 316.406738 871.095093 363.281830
/muse/acc 316.406738 878.907654 363.281830
/muse/acc 316.406738 878.907654 363.281830
/muse/drlref 1629032.250000 1641935.500000
/muse/acc 316.406738 878.907654 363.281830
/muse/eeg 830.715088 838.940002 840.584961 812.620300
Unknown message         
	 Source: 'osc.udp://127.0.0.1:55693/'         
	 Address: '/muse/eeg/quantization'         
	 Types: 'iiii '         
	 Payload: '[1, 1, 1, 1]'
/muse/eeg 842.229919 801.105408 827.425110 824.135132
/muse/eeg 835.650024 789.590576 834.005005 820.845215
/muse/eeg 834.005005 802.750427 832.360046 819.200195
/muse/eeg 830.715088 825.780151 838.940002 820.845215
/muse/eeg 827.425110 838.940002 830.715088 810.975281
/muse/eeg 837.294983 819.200195 824.135132 824.135132
/muse/eeg 835.650024 817.555237 832.360046 822.490173
/muse/eeg 837.294983 794.525513 825.780151 824.135132
/muse/eeg 838.940002 835.650024 835.650024 825.780151
/muse/eeg 837.294983 824.135132 834.005005 822.490173
/muse/elements/alpha_relative 0.136279 0.140004 0.038018 0.155675
/muse/elements/beta_relative 0.152954 0.383114 0.470435 0.118931
/muse/elements/delta_relative 0.319254 0.152983 0.135192 0.399483
/muse/elements/gamma_relative 0.086752 0.267584 0.308847 0.065514
/muse/elements/theta_relative 0.304762 0.056315 0.047508 0.260397
/muse/elements/horseshoe 1.000000 1.000000 1.000000 1.000000
/muse/elements/is_good 0 1 1 0
/muse/elements/blink [0]
/muse/elements/jaw_clench [0]
/muse/elements/touching_forehead [1]
/muse/elements/experimental/concentration [0.03411687910556793]
/muse/elements/experimental/mellow [0.35961923003196716]
/muse/elements/low_freqs_absolute 1.115233 0.583049 0.505273 1.262005
/muse/elements/alpha_absolute 0.454464 0.408424 -0.176474 0.634758
/muse/elements/beta_absolute 0.504596 0.845613 0.916034 0.517835
/muse/elements/delta_absolute 0.824173 0.446927 0.374487 1.044038
/muse/elements/gamma_absolute 0.258314 0.689745 0.733277 0.258872
/muse/elements/theta_absolute 0.803998 0.012910 -0.079703 0.858176
/muse/eeg 843.874939 797.815491 830.715088 827.425110
/muse/eeg 852.099792 786.300598 840.584961 838.940002
/muse/eeg 842.229919 794.525513 835.650024 829.070068
/muse/eeg 834.005005 829.070068 829.070068 819.200195
/muse/eeg 838.940002 838.940002 838.940002 822.490173
/muse/acc 320.312988 871.095093 363.281830
/muse/acc 320.312988 867.188843 359.375549
/muse/acc 320.312988 867.188843 359.375549
/muse/eeg 847.164856 815.910278 843.874939 829.070068
Unknown message         
	 Source: 'osc.udp://127.0.0.1:55693/'         
	 Address: '/muse/eeg/quantization'         
	 Types: 'iiii '         
	 Payload: '[1, 1, 1, 1]'
/muse/eeg 852.099792 804.395386 834.005005 832.360046
/muse/eeg 832.360046 817.555237 837.294983 819.200195
/muse/eeg 832.360046 792.880554 824.135132 817.555237
/muse/eeg 832.360046 810.975281 825.780151 819.200195
/muse/eeg 837.294983 807.685364 835.650024 825.780151
/muse/eeg 832.360046 806.040344 830.715088 820.845215
/muse/eeg 834.005005 830.715088 829.070068 819.200195
/muse/eeg 843.874939 824.135132 838.940002 834.005005
/muse/eeg 850.454834 809.330322 842.229919 838.940002
/muse/eeg 843.874939 815.910278 843.874939 832.360046
/muse/eeg 838.940002 834.005005 832.360046 824.135132
/muse/eeg 848.809875 810.975281 820.845215 834.005005
/muse/eeg 829.070068 804.395386 825.780151 824.135132
/muse/eeg 829.070068 774.785767 832.360046 825.780151
/muse/eeg 832.360046 822.490173 850.454834 827.425110
/muse/acc 320.312988 871.095093 359.375549
/muse/drlref 1629032.250000 1641935.500000
/muse/acc 320.312988 871.095093 359.375549
/muse/acc 316.406738 875.001343 363.281830
/muse/acc 320.312988 875.001343 363.281830
/muse/eeg 835.650024 815.910278 835.650024 829.070068
/muse/elements/alpha_relative 0.097354 0.136633 0.034594 0.094895
/muse/elements/beta_relative 0.320918 0.375053 0.466089 0.265086
/muse/elements/delta_relative 0.250158 0.169220 0.144380 0.109908
/muse/elements/gamma_relative 0.140398 0.260469 0.304967 0.187603
/muse/elements/theta_relative 0.191173 0.058625 0.049971 0.342508
/muse/elements/horseshoe 1.000000 1.000000 1.000000 1.000000
/muse/elements/is_good 1 1 1 1
/muse/elements/blink [0]
/muse/elements/jaw_clench [0]
/muse/elements/touching_forehead [1]
/muse/elements/experimental/concentration [0.018852034583687782]
/muse/elements/experimental/mellow [0.3429192304611206]
/muse/elements/low_freqs_absolute 0.717019 0.630510 0.543570 0.752801
/muse/elements/alpha_absolute 0.060611 0.408424 -0.206014 0.074505
/muse/elements/beta_absolute 0.578649 0.846962 0.923452 0.520649
/muse/elements/delta_absolute 0.470469 0.501322 0.414491 0.138292
/muse/elements/gamma_absolute 0.219615 0.688627 0.739236 0.370503
/muse/elements/theta_absolute 0.353681 0.040952 -0.046302 0.631933
Unknown message         
	 Source: 'osc.udp://127.0.0.1:55693/'         
	 Address: '/muse/eeg/quantization'         
	 Types: 'iiii '         
	 Payload: '[1, 1, 1, 1]'
/muse/eeg 830.715088 812.620300 825.780151 822.490173
/muse/eeg 843.874939 806.040344 838.940002 830.715088
/muse/eeg 848.809875 806.040344 835.650024 835.650024
/muse/eeg 840.584961 819.200195 825.780151 829.070068
/muse/eeg 840.584961 804.395386 825.780151 830.715088
/muse/eeg 843.874939 802.750427 829.070068 834.005005
/muse/eeg 837.294983 792.880554 842.229919 825.780151
/muse/eeg 840.584961 804.395386 850.454834 830.715088
/muse/eeg 838.940002 814.265259 838.940002 829.070068
/muse/eeg 832.360046 810.975281 834.005005 825.780151
/muse/eeg 835.650024 806.040344 834.005005 827.425110
/muse/eeg 835.650024 812.620300 837.294983 820.845215
/muse/eeg 840.584961 817.555237 830.715088 825.780151
/muse/eeg 840.584961 822.490173 829.070068 822.490173
/muse/eeg 832.360046 824.135132 834.005005 815.910278
/muse/acc 320.312988 871.095093 359.375549
/muse/acc 316.406738 871.095093 359.375549
/muse/acc 320.312988 871.095093 359.375549
/muse/drlref 1629032.250000 1641935.500000
/muse/acc 320.312988 871.095093 359.375549
/muse/eeg 832.360046 807.685364 824.135132 820.845215
Unknown message         
	 Source: 'osc.udp://127.0.0.1:55693/'         
	 Address: '/muse/eeg/quantization'         
	 Types: 'iiii '         
	 Payload: '[1, 1, 1, 1]'
/muse/eeg 835.650024 835.650024 843.874939 817.555237
/muse/eeg 845.519897 804.395386 832.360046 832.360046
/muse/eeg 842.229919 802.750427 824.135132 830.715088
/muse/eeg 847.164856 819.200195 827.425110 835.650024
/muse/eeg 850.454834 815.910278 834.005005 840.584961
/muse/eeg 830.715088 830.715088 838.940002 815.910278
/muse/elements/alpha_relative 0.100830 0.134577 0.031712 0.115716
/muse/elements/beta_relative 0.317590 0.366402 0.465748 0.257118
/muse/elements/delta_relative 0.241022 0.181347 0.150948 0.101312
/muse/elements/gamma_relative 0.144892 0.257312 0.300828 0.185766
/muse/elements/theta_relative 0.195666 0.060362 0.050764 0.340089
/muse/elements/horseshoe 1.000000 1.000000 1.000000 1.000000
/muse/elements/is_good 1 1 1 1
/muse/elements/blink [0]
/muse/elements/jaw_clench [0]
/muse/elements/touching_forehead [1]
/muse/elements/experimental/concentration [0.0035871907602995634]
/muse/elements/experimental/mellow [0.326406866312027]
/muse/elements/low_freqs_absolute 0.718829 0.662747 0.570754 0.751556
/muse/elements/alpha_absolute 0.082249 0.408424 -0.232757 0.170118
/muse/elements/beta_absolute 0.580526 0.843411 0.934173 0.516855
/muse/elements/delta_absolute 0.460715 0.537964 0.444851 0.112384
/muse/elements/gamma_absolute 0.239704 0.689914 0.744340 0.375689
/muse/elements/theta_absolute 0.370173 0.060220 -0.028426 0.638315
/muse/eeg 830.715088 819.200195 840.584961 815.910278
/muse/eeg 834.005005 801.105408 832.360046 817.555237
/muse/eeg 840.584961 792.880554 820.845215 822.490173
/muse/eeg 835.650024 822.490173 829.070068 819.200195
/muse/eeg 835.650024 829.070068 829.070068 817.555237
/muse/eeg 837.294983 815.910278 834.005005 824.135132
/muse/eeg 840.584961 807.685364 837.294983 835.650024
/muse/eeg 838.940002 802.750427 832.360046 832.360046
/muse/eeg 830.715088 819.200195 834.005005 817.555237
/muse/acc 320.312988 871.095093 359.375549
/muse/acc 320.312988 871.095093 359.375549
/muse/acc 320.312988 871.095093 359.375549
/muse/eeg 838.940002 830.715088 843.874939 820.845215
Unknown message         
	 Source: 'osc.udp://127.0.0.1:55693/'         
	 Address: '/muse/eeg/quantization'         
	 Types: 'iiii '         
	 Payload: '[1, 1, 1, 1]'
/muse/eeg 838.940002 809.330322 837.294983 827.425110
/muse/eeg 832.360046 792.880554 832.360046 824.135132
/muse/eeg 837.294983 809.330322 834.005005 827.425110
/muse/eeg 837.294983 809.330322 815.910278 824.135132
/muse/eeg 838.940002 820.845215 825.780151 820.845215
/muse/eeg 830.715088 801.105408 837.294983 820.845215
/muse/eeg 824.135132 817.555237 837.294983 814.265259
/muse/eeg 834.005005 819.200195 835.650024 819.200195
/muse/eeg 830.715088 810.975281 829.070068 820.845215
/muse/eeg 835.650024 799.460449 838.940002 825.780151
/muse/eeg 840.584961 810.975281 847.164856 830.715088
/muse/eeg 842.229919 829.070068 855.389771 825.780151
/muse/elements/alpha_relative 0.104689 0.133971 0.032225 0.122683
/muse/elements/beta_relative 0.317437 0.360553 0.467791 0.261564
/muse/elements/delta_relative 0.235982 0.187138 0.152888 0.098255
/muse/elements/gamma_relative 0.149648 0.257875 0.296732 0.189008
/muse/elements/theta_relative 0.192245 0.060462 0.050364 0.328490
/muse/elements/horseshoe 1.000000 1.000000 1.000000 1.000000
/muse/elements/is_good 1 1 1 1
/muse/elements/blink [0]
/muse/elements/jaw_clench [0]
/muse/elements/touching_forehead [1]
/muse/elements/experimental/concentration [0.0]
/muse/elements/experimental/mellow [0.3099883496761322]
/muse/elements/low_freqs_absolute 0.707088 0.675165 0.581875 0.728092
/muse/elements/alpha_absolute 0.095313 0.408424 -0.217972 0.186709
/muse/elements/beta_absolute 0.577071 0.838383 0.943891 0.515500
/muse/elements/delta_absolute 0.448292 0.553576 0.458213 0.090278
/muse/elements/gamma_absolute 0.250484 0.692823 0.746203 0.374403
/muse/elements/theta_absolute 0.359269 0.062898 -0.024037 0.614445
/muse/eeg 845.519897 810.975281 838.940002 829.070068
/muse/eeg 843.874939 817.555237 824.135132 829.070068
/muse/eeg 848.809875 797.815491 820.845215 834.005005
/muse/acc 324.219269 871.095093 359.375549
/muse/drlref 1629032.250000 1641935.500000
/muse/acc 320.312988 871.095093 359.375549
/muse/acc 320.312988 871.095093 363.281830
/muse/acc 320.312988 871.095093 359.375549
/muse/eeg 842.229919 820.845215 832.360046 825.780151
Unknown message         
	 Source: 'osc.udp://127.0.0.1:55693/'         
	 Address: '/muse/eeg/quantization'         
	 Types: 'iiii '         
	 Payload: '[1, 1, 1, 1]'
/muse/eeg 834.005005 827.425110 842.229919 820.845215
/muse/eeg 834.005005 806.040344 837.294983 819.200195
/muse/eeg 830.715088 806.040344 829.070068 822.490173
/muse/eeg 822.490173 801.105408 842.229919 820.845215
/muse/eeg 830.715088 809.330322 843.874939 820.845215
/muse/eeg 838.940002 815.910278 847.164856 825.780151
/muse/eeg 835.650024 819.200195 847.164856 820.845215
/muse/eeg 835.650024 791.235535 838.940002 824.135132
/muse/eeg 834.005005 819.200195 847.164856 822.490173
/muse/eeg 837.294983 806.040344 843.874939 827.425110
/muse/eeg 830.715088 787.945557 848.809875 825.780151
/muse/eeg 820.845215 779.720703 852.099792 829.070068
/muse/eeg 815.910278 779.720703 848.809875 827.425110
/muse/eeg 814.265259 804.395386 852.099792 825.780151
/muse/eeg 819.200195 789.590576 847.164856 827.425110
/muse/acc 316.406738 871.095093 359.375549
/muse/acc 320.312988 871.095093 363.281830
/muse/drlref 1629032.250000 1645161.250000
/muse/acc 316.406738 875.001343 363.281830
/muse/eeg 820.845215 794.525513 845.519897 825.780151
Unknown message         
	 Source: 'osc.udp://127.0.0.1:55693/'         
	 Address: '/muse/eeg/quantization'         
	 Types: 'iiii '         
	 Payload: '[1, 1, 1, 1]'
/muse/eeg 830.715088 789.590576 843.874939 837.294983
/muse/eeg 830.715088 809.330322 847.164856 837.294983
/muse/elements/alpha_relative 0.107672 0.134293 0.033836 0.127586
/muse/elements/beta_relative 0.320520 0.359827 0.472649 0.270616
/muse/elements/delta_relative 0.231036 0.184979 0.150401 0.098622
/muse/elements/gamma_relative 0.154315 0.262165 0.293181 0.193379
/muse/elements/theta_relative 0.186457 0.058735 0.049934 0.309796
/muse/elements/horseshoe 1.000000 1.000000 1.000000 1.000000
/muse/elements/is_good 1 1 1 1
/muse/elements/blink [0]
/muse/elements/jaw_clench [0]
/muse/elements/touching_forehead [1]
/muse/elements/experimental/concentration [0.0]
/muse/elements/experimental/mellow [0.29356980323791504]
/muse/elements/low_freqs_absolute 0.683859 0.667252 0.575041 0.692012
/muse/elements/alpha_absolute 0.095313 0.408424 -0.197342 0.186709
/muse/elements/beta_absolute 0.569067 0.836465 0.947825 0.513260
/muse/elements/delta_absolute 0.426890 0.547494 0.450535 0.074882
/muse/elements/gamma_absolute 0.251620 0.698946 0.740421 0.367316
/muse/elements/theta_absolute 0.333789 0.049269 -0.028321 0.571983
/muse/eeg 835.650024 791.235535 843.874939 837.294983
/muse/eeg 829.070068 797.815491 845.519897 829.070068
/muse/eeg 830.715088 789.590576 853.744812 834.005005
/muse/eeg 829.070068 802.750427 842.229919 827.425110
/muse/eeg 829.070068 810.975281 830.715088 827.425110
/muse/eeg 834.005005 799.460449 832.360046 829.070068
/muse/eeg 837.294983 796.170471 829.070068 829.070068
/muse/eeg 835.650024 784.655640 835.650024 829.070068
/muse/eeg 834.005005 830.715088 845.519897 824.135132
/muse/eeg 848.809875 817.555237 852.099792 842.229919
/muse/eeg 850.454834 794.525513 850.454834 842.229919
/muse/eeg 840.584961 783.010620 843.874939 830.715088
/muse/eeg 834.005005 799.460449 840.584961 822.490173
/muse/acc 320.312988 867.188843 363.281830
/muse/acc 320.312988 867.188843 363.281830
/muse/acc 320.312988 867.188843 363.281830
Unknown message         
	 Source: 'osc.udp://127.0.0.1:55693/'         
	 Address: '/muse/config'         
	 Types: 's '         
	 Payload: '['{"mac_addr":"000666A069D0","serial_number":"1160-UJMN-69D0","preset":"14","filters_enabled":true,"notch_frequency_hz":60,"battery_data_enabled":true,"compression_enabled":true,"eeg_sample_frequency_hz":3520,"eeg_output_frequency_hz":220,"eeg_channel_count":4,"eeg_samples_bitwidth":10,"eeg_channel_layout":"TP9 FP1 FP2 TP10 ","eeg_downsample":16,"afe_gain":1961,"battery_percent_remaining":36,"battery_millivolts":3724,"eeg_units":"EEG_MICROVOLTS","acc_units":"ACC_GFORCE","eeg_conversion_factor":1.644980342484907,"drlref_conversion_factor":3225.806451612903,"acc_conversion_factor":3.906256109482,"acc_sample_frequency_hz":50,"drlref_sample_frequency_hz":10,"acc_data_enabled":true,"drlref_data_enabled":true,"error_data_enabled":true}\n']'
Unknown message         
	 Source: 'osc.udp://127.0.0.1:55693/'         
	 Address: '/muse/version'         
	 Types: 's '         
	 Payload: '['{"hardware_version":"16.0.0","firmware_headset_version":"7.2.7","firmware_bootloader_version":"7.2.7","firmware_type":"Research","build_number":41,"protocol_version":2}\n']'
/muse/acc 320.312988 867.188843 367.188080
/muse/eeg 837.294983 796.170471 824.135132 822.490173
Unknown message         
	 Source: 'osc.udp://127.0.0.1:55693/'         
	 Address: '/muse/eeg/quantization'         
	 Types: 'iiii '         
	 Payload: '[1, 1, 1, 1]'
/muse/eeg 837.294983 809.330322 824.135132 825.780151
/muse/eeg 830.715088 794.525513 824.135132 824.135132
/muse/eeg 830.715088 786.300598 837.294983 827.425110
/muse/eeg 835.650024 810.975281 847.164856 829.070068
/muse/eeg 840.584961 814.265259 852.099792 835.650024
/muse/eeg 840.584961 801.105408 850.454834 832.360046
/muse/eeg 848.809875 784.655640 838.940002 843.874939
/muse/eeg 847.164856 825.780151 850.454834 843.874939
/muse/elements/alpha_relative 0.111750 0.134894 0.035298 0.133219
/muse/elements/beta_relative 0.326876 0.364242 0.479781 0.281125
/muse/elements/delta_relative 0.224609 0.175510 0.144468 0.100876
/muse/elements/gamma_relative 0.157460 0.269596 0.290273 0.196139
/muse/elements/theta_relative 0.179304 0.055758 0.050180 0.288642
/muse/elements/horseshoe 1.000000 1.000000 1.000000 1.000000
/muse/elements/is_good 1 1 1 1
/muse/elements/blink [0]
/muse/elements/jaw_clench [0]
/muse/elements/touching_forehead [1]
/muse/elements/experimental/concentration [0.0]
/muse/elements/experimental/mellow [0.2771512567996979]
/muse/elements/low_freqs_absolute 0.653354 0.642548 0.551220 0.652670
/muse/elements/alpha_absolute 0.095313 0.408424 -0.190283 0.186709
/muse/elements/beta_absolute 0.561449 0.839821 0.943013 0.511043
/muse/elements/delta_absolute 0.398494 0.522733 0.421741 0.065929
/muse/elements/gamma_absolute 0.244235 0.709146 0.724777 0.354707
/muse/elements/theta_absolute 0.300656 0.024742 -0.037496 0.522503
/muse/eeg 842.229919 792.880554 835.650024 834.005005
/muse/eeg 840.584961 810.975281 825.780151 830.715088
/muse/eeg 848.809875 797.815491 829.070068 838.940002
/muse/eeg 835.650024 802.750427 838.940002 829.070068
/muse/eeg 827.425110 819.200195 835.650024 822.490173
/muse/eeg 834.005005 806.040344 832.360046 822.490173
/muse/eeg 845.519897 815.910278 852.099792 834.005005
/muse/eeg 845.519897 794.525513 845.519897 835.650024
/muse/acc 320.312988 875.001343 367.188080
/muse/drlref 1629032.250000 1641935.500000
/muse/acc 316.406738 878.907654 367.188080
/muse/acc 316.406738 875.001343 363.281830
/muse/acc 320.312988 867.188843 359.375549
/muse/eeg 834.005005 819.200195 834.005005 822.490173
Unknown message         
	 Source: 'osc.udp://127.0.0.1:55693/'         
	 Address: '/muse/eeg/quantization'         
	 Types: 'iiii '         
	 Payload: '[1, 1, 1, 1]'
/muse/eeg 843.874939 807.685364 827.425110 835.650024
/muse/eeg 835.650024 806.040344 825.780151 830.715088
/muse/eeg 838.940002 789.590576 824.135132 829.070068
/muse/eeg 837.294983 796.170471 838.940002 830.715088
/muse/eeg 832.360046 817.555237 843.874939 820.845215
/muse/eeg 840.584961 829.070068 838.940002 825.780151
/muse/eeg 845.519897 827.425110 848.809875 834.005005
/muse/eeg 847.164856 806.040344 840.584961 837.294983
/muse/eeg 840.584961 830.715088 835.650024 824.135132
/muse/eeg 848.809875 809.330322 822.490173 830.715088
/muse/eeg 834.005005 806.040344 809.330322 820.845215
/muse/eeg 848.809875 807.685364 814.265259 829.070068
/muse/eeg 850.454834 830.715088 830.715088 832.360046
/muse/elements/alpha_relative 0.115700 0.139387 0.038989 0.138834
/muse/elements/beta_relative 0.336378 0.368392 0.485325 0.292397
/muse/elements/delta_relative 0.216954 0.161460 0.136282 0.103439
/muse/elements/gamma_relative 0.157939 0.277605 0.288031 0.196263
/muse/elements/theta_relative 0.173029 0.053155 0.051374 0.269067
/muse/elements/horseshoe 1.000000 1.000000 1.000000 1.000000
/muse/elements/is_good 1 1 1 1
/muse/elements/blink [0]
/muse/elements/jaw_clench [0]
/muse/elements/touching_forehead [1]
/muse/elements/experimental/concentration [0.0]
/muse/elements/experimental/mellow [0.2608265280723572]
/muse/elements/low_freqs_absolute 0.623024 0.611031 0.516339 0.615918
/muse/elements/alpha_absolute 0.095313 0.423591 -0.166083 0.187279
/muse/elements/beta_absolute 0.558805 0.845680 0.929011 0.510757
/muse/elements/delta_absolute 0.368346 0.487435 0.377416 0.059469
/muse/elements/gamma_absolute 0.230468 0.722797 0.702418 0.337623
/muse/elements/theta_absolute 0.270097 0.004917 -0.046282 0.474645
/muse/eeg 832.360046 820.845215 840.584961 815.910278
/muse/eeg 840.584961 815.910278 855.389771 820.845215
/muse/acc 320.312988 867.188843 359.375549
/muse/acc 320.312988 867.188843 359.375549
/muse/drlref 1629032.250000 1641935.500000
/muse/acc 320.312988 871.095093 359.375549
/muse/eeg 843.874939 810.975281 848.809875 830.715088
Unknown message         
	 Source: 'osc.udp://127.0.0.1:55693/'         
	 Address: '/muse/eeg/quantization'         
	 Types: 'iiii '         
	 Payload: '[1, 1, 1, 1]'
/muse/eeg 842.229919 787.945557 824.135132 834.005005
/muse/eeg 840.584961 824.135132 832.360046 830.715088
/muse/eeg 838.940002 797.815491 842.229919 832.360046
/muse/eeg 834.005005 807.685364 832.360046 827.425110
/muse/eeg 837.294983 799.460449 834.005005 834.005005
/muse/eeg 832.360046 815.910278 852.099792 832.360046
/muse/eeg 832.360046 829.070068 842.229919 829.070068
/muse/eeg 840.584961 807.685364 840.584961 838.940002
/muse/eeg 837.294983 797.815491 838.940002 835.650024
/muse/eeg 829.070068 802.750427 834.005005 830.715088
/muse/eeg 829.070068 824.135132 835.650024 820.845215
/muse/eeg 838.940002 796.170471 838.940002 832.360046
/muse/eeg 832.360046 791.235535 829.070068 830.715088
/muse/eeg 825.780151 791.235535 827.425110 825.780151
/muse/eeg 824.135132 807.685364 838.940002 827.425110
/muse/acc 328.125519 871.095093 359.375549
/muse/acc 328.125519 871.095093 363.281830
/muse/acc 332.031769 871.095093 363.281830
/muse/acc 328.125519 875.001343 363.281830
/muse/eeg 824.135132 812.620300 847.164856 825.780151
Unknown message         
	 Source: 'osc.udp://127.0.0.1:55693/'         
	 Address: '/muse/eeg/quantization'         
	 Types: 'iiii '         
	 Payload: '[1, 1, 1, 1]'
/muse/eeg 830.715088 806.040344 840.584961 834.005005
/muse/eeg 830.715088 806.040344 840.584961 830.715088
/muse/eeg 838.940002 806.040344 838.940002 832.360046
/muse/elements/alpha_relative 0.118363 0.143881 0.041925 0.145300
/muse/elements/beta_relative 0.347287 0.368095 0.488283 0.303478
/muse/elements/delta_relative 0.209918 0.150571 0.128905 0.106197
/muse/elements/gamma_relative 0.155117 0.284522 0.287358 0.193524
/muse/elements/theta_relative 0.169315 0.052931 0.053529 0.251502
/muse/elements/horseshoe 1.000000 1.000000 1.000000 1.000000
/muse/elements/is_good 1 1 1 1
/muse/elements/blink [0]
/muse/elements/jaw_clench [0]
/muse/elements/touching_forehead [1]
/muse/elements/experimental/concentration [0.0]
/muse/elements/experimental/mellow [0.24450181424617767]
/muse/elements/low_freqs_absolute 0.601004 0.590805 0.482500 0.584316
/muse/elements/alpha_absolute 0.095313 0.440242 -0.156128 0.193065
/muse/elements/beta_absolute 0.562787 0.848197 0.910066 0.512926
/muse/elements/delta_absolute 0.344147 0.459978 0.331663 0.056911
/muse/elements/gamma_absolute 0.212757 0.736352 0.679818 0.317533
/muse/elements/theta_absolute 0.250793 0.005947 -0.050014 0.431340
/muse/eeg 834.005005 809.330322 832.360046 827.425110
/muse/eeg 822.490173 820.845215 825.780151 814.265259
/muse/eeg 834.005005 804.395386 819.200195 824.135132
/muse/eeg 834.005005 797.815491 827.425110 825.780151
/muse/eeg 829.070068 810.975281 843.874939 820.845215
/muse/eeg 834.005005 825.780151 852.099792 824.135132
/muse/eeg 834.005005 822.490173 847.164856 827.425110
/muse/eeg 837.294983 806.040344 832.360046 832.360046
/muse/eeg 834.005005 819.200195 838.940002 825.780151
/muse/eeg 848.809875 825.780151 840.584961 838.940002
/muse/eeg 847.164856 824.135132 822.490173 837.294983
/muse/eeg 829.070068 807.685364 819.200195 820.845215
/muse/acc 332.031769 871.095093 363.281830
/muse/drlref 1629032.250000 1641935.500000
/muse/acc 339.844269 871.095093 363.281830
/muse/acc 332.031769 882.813904 359.375549
/muse/acc 332.031769 886.720154 359.375549
/muse/eeg 834.005005 783.010620 819.200195 829.070068
Unknown message         
	 Source: 'osc.udp://127.0.0.1:55693/'         
	 Address: '/muse/eeg/quantization'         
	 Types: 'iiii '         
	 Payload: '[1, 1, 1, 1]'
/muse/eeg 829.070068 812.620300 837.294983 820.845215
/muse/eeg 835.650024 810.975281 845.519897 825.780151
/muse/eeg 837.294983 804.395386 837.294983 829.070068
/muse/eeg 835.650024 794.525513 837.294983 829.070068
/muse/eeg 840.584961 801.105408 835.650024 832.360046
/muse/eeg 837.294983 827.425110 847.164856 829.070068
/muse/eeg 832.360046 835.650024 847.164856 825.780151
/muse/eeg 837.294983 806.040344 830.715088 832.360046
/muse/eeg 843.874939 804.395386 842.229919 838.940002
/muse/elements/alpha_relative 0.119266 0.143866 0.047439 0.149828
/muse/elements/beta_relative 0.356496 0.360598 0.485529 0.314086
/muse/elements/delta_relative 0.206930 0.150995 0.125684 0.110015
/muse/elements/gamma_relative 0.149280 0.289169 0.285710 0.189412
/muse/elements/theta_relative 0.168028 0.055372 0.055638 0.236658
/muse/elements/horseshoe 1.000000 1.000000 1.000000 1.000000
/muse/elements/is_good 1 1 1 1
/muse/elements/blink [0]
/muse/elements/jaw_clench [0]
/muse/elements/touching_forehead [1]
/muse/elements/experimental/concentration [0.0]
/muse/elements/experimental/mellow [0.22817710041999817]
/muse/elements/low_freqs_absolute 0.592778 0.600397 0.466209 0.558916
/muse/elements/alpha_absolute 0.095313 0.443714 -0.116110 0.194588
/muse/elements/beta_absolute 0.570851 0.842779 0.893974 0.516045
/muse/elements/delta_absolute 0.334619 0.464719 0.307038 0.060448
/muse/elements/gamma_absolute 0.192797 0.746908 0.663684 0.296404
/muse/elements/theta_absolute 0.244178 0.029047 -0.046868 0.393117
/muse/eeg 834.005005 830.715088 840.584961 825.780151
/muse/eeg 830.715088 796.170471 822.490173 825.780151
/muse/eeg 834.005005 815.910278 827.425110 829.070068
/muse/eeg 840.584961 807.685364 827.425110 838.940002
/muse/eeg 834.005005 815.910278 838.940002 832.360046
/muse/eeg 827.425110 822.490173 842.229919 819.200195
/muse/acc 332.031769 882.813904 351.563049
/muse/acc 332.031769 871.095093 347.656799
/muse/drlref 1625806.500000 1641935.500000
/muse/acc 324.219269 859.376343 347.656799
/muse/eeg 832.360046 810.975281 842.229919 825.780151
Unknown message         
	 Source: 'osc.udp://127.0.0.1:55693/'         
	 Address: '/muse/eeg/quantization'         
	 Types: 'iiii '         
	 Payload: '[1, 1, 1, 1]'
/muse/eeg 835.650024 789.590576 835.650024 827.425110
/muse/eeg 838.940002 771.495789 820.845215 832.360046
/muse/eeg 840.584961 807.685364 837.294983 835.650024
/muse/eeg 842.229919 810.975281 835.650024 832.360046
/muse/eeg 830.715088 819.200195 835.650024 824.135132
/muse/eeg 834.005005 812.620300 832.360046 824.135132
/muse/eeg 842.229919 827.425110 832.360046 830.715088
/muse/eeg 838.940002 832.360046 837.294983 824.135132
/muse/eeg 845.519897 814.265259 825.780151 832.360046
/muse/eeg 842.229919 809.330322 830.715088 834.005005
/muse/eeg 843.874939 807.685364 830.715088 834.005005
/muse/eeg 843.874939 825.780151 830.715088 829.070068
/muse/eeg 842.229919 802.750427 829.070068 830.715088
/muse/eeg 840.584961 804.395386 829.070068 829.070068
/muse/eeg 842.229919 804.395386 837.294983 830.715088
/muse/elements/alpha_relative 0.118888 0.140535 0.050081 0.156943
/muse/elements/beta_relative 0.361701 0.346235 0.482552 0.321556
/muse/elements/delta_relative 0.208307 0.163093 0.128120 0.114038
/muse/elements/gamma_relative 0.141870 0.290326 0.282152 0.184200
/muse/elements/theta_relative 0.169235 0.059811 0.057094 0.223263
/muse/elements/horseshoe 1.000000 1.000000 1.000000 1.000000
/muse/elements/is_good 1 1 1 1
/muse/elements/blink [0]
/muse/elements/jaw_clench [0]
/muse/elements/touching_forehead [1]
/muse/elements/experimental/concentration [0.0]
/muse/elements/experimental/mellow [0.2118566483259201]
/muse/elements/low_freqs_absolute 0.597142 0.637875 0.472787 0.538510
/muse/elements/alpha_absolute 0.095313 0.437541 -0.095211 0.206235
/muse/elements/beta_absolute 0.578527 0.829127 0.888656 0.517748
/muse/elements/delta_absolute 0.338881 0.502192 0.312730 0.067543
/muse/elements/gamma_absolute 0.172067 0.752643 0.655596 0.275780
/muse/elements/theta_absolute 0.248668 0.066538 -0.038295 0.359309
/muse/acc 316.406738 859.376343 347.656799
/muse/acc 312.500488 863.282593 351.563049
/muse/acc 316.406738 863.282593 363.281830
/muse/acc 320.312988 871.095093 375.000580
/muse/eeg 843.874939 820.845215 850.454834 832.360046
Unknown message         
	 Source: 'osc.udp://127.0.0.1:55693/'         
	 Address: '/muse/eeg/quantization'         
	 Types: 'iiii '         
	 Payload: '[1, 1, 1, 1]'
/muse/eeg 843.874939 832.360046 850.454834 827.425110
/muse/eeg 842.229919 807.685364 840.584961 827.425110
/muse/eeg 843.874939 807.685364 829.070068 834.005005
/muse/eeg 842.229919 809.330322 829.070068 835.650024
/muse/eeg 838.940002 835.650024 843.874939 832.360046
/muse/eeg 843.874939 838.940002 835.650024 832.360046
/muse/eeg 842.229919 804.395386 822.490173 829.070068
/muse/eeg 837.294983 794.525513 824.135132 827.425110
/muse/eeg 830.715088 809.330322 835.650024 819.200195
/muse/eeg 835.650024 806.040344 834.005005 824.135132
/muse/eeg 835.650024 809.330322 834.005005 825.780151
/muse/eeg 832.360046 796.170471 837.294983 825.780151
/muse/eeg 842.229919 810.975281 843.874939 835.650024
/muse/eeg 852.099792 827.425110 842.229919 843.874939
/muse/eeg 835.650024 814.265259 830.715088 827.425110
/muse/acc 320.312988 882.813904 378.906830
/muse/drlref 1629032.250000 1645161.250000
/muse/acc 312.500488 886.720154 371.094330
/muse/acc 308.594238 875.001343 367.188080
/muse/eeg 834.005005 812.620300 830.715088 825.780151
Unknown message         
	 Source: 'osc.udp://127.0.0.1:55693/'         
	 Address: '/muse/eeg/quantization'         
	 Types: 'iiii '         
	 Payload: '[1, 1, 1, 1]'
/muse/eeg 845.519897 802.750427 832.360046 838.940002
/muse/eeg 834.005005 832.360046 840.584961 820.845215
/muse/eeg 842.229919 814.265259 829.070068 824.135132
/muse/eeg 829.070068 809.330322 819.200195 810.975281
/muse/eeg 820.845215 802.750427 804.395386 797.815491
/muse/elements/alpha_relative 0.119103 0.132327 0.052539 0.165698
/muse/elements/beta_relative 0.362034 0.330770 0.482392 0.326028
/muse/elements/delta_relative 0.212993 0.181872 0.133284 0.116828
/muse/elements/gamma_relative 0.134828 0.289742 0.274455 0.179250
/muse/elements/theta_relative 0.171042 0.065288 0.057330 0.212197
/muse/elements/horseshoe 1.000000 1.000000 1.000000 1.000000
/muse/elements/is_good 1 1 1 1
/muse/elements/blink [0]
/muse/elements/jaw_clench [0]
/muse/elements/touching_forehead [1]
/muse/elements/experimental/concentration [0.0]
/muse/elements/experimental/mellow [0.1957259625196457]
/muse/elements/low_freqs_absolute 0.607357 0.684322 0.492531 0.520524
/muse/elements/alpha_absolute 0.098907 0.412993 -0.067147 0.222614
/muse/elements/beta_absolute 0.581735 0.810870 0.895775 0.516551
/muse/elements/delta_absolute 0.351351 0.551109 0.337154 0.070842
/muse/elements/gamma_absolute 0.152765 0.753354 0.650846 0.256755
/muse/elements/theta_absolute 0.256089 0.106178 -0.029239 0.330034
/muse/eeg 825.780151 812.620300 807.685364 806.040344
/muse/eeg 819.200195 842.229919 817.555237 801.105408
/muse/eeg 827.425110 837.294983 810.975281 797.815491
/muse/eeg 835.650024 810.975281 814.265259 809.330322
/muse/eeg 838.940002 819.200195 820.845215 810.975281
/muse/eeg 837.294983 840.584961 827.425110 810.975281
/muse/eeg 850.454834 835.650024 832.360046 822.490173
/muse/eeg 845.519897 840.584961 832.360046 817.555237
/muse/eeg 835.650024 809.330322 824.135132 814.265259
/muse/eeg 835.650024 824.135132 817.555237 806.040344
/muse/acc 308.594238 867.188843 367.188080
/muse/acc 312.500488 867.188843 367.188080
/muse/acc 316.406738 867.188843 367.188080
/muse/drlref 1629032.250000 1645161.250000
/muse/acc 300.781708 863.282593 359.375549
/muse/eeg 842.229919 827.425110 824.135132 815.910278
Unknown message         
	 Source: 'osc.udp://127.0.0.1:55693/'         
	 Address: '/muse/eeg/quantization'         
	 Types: 'iiii '         
	 Payload: '[1, 1, 1, 1]'
/muse/eeg 847.164856 837.294983 830.715088 824.135132
/muse/eeg 850.454834 815.910278 822.490173 825.780151
/muse/eeg 845.519897 797.815491 814.265259 825.780151
/muse/eeg 843.874939 829.070068 817.555237 822.490173
/muse/eeg 845.519897 834.005005 834.005005 822.490173
/muse/eeg 845.519897 820.845215 834.005005 827.425110
/muse/eeg 848.809875 810.975281 825.780151 829.070068
/muse/eeg 838.940002 815.910278 829.070068 820.845215
/muse/eeg 838.940002 806.040344 824.135132 817.555237
/muse/eeg 837.294983 850.454834 827.425110 812.620300
/muse/eeg 850.454834 810.975281 830.715088 829.070068
/muse/elements/alpha_relative 0.123308 0.117591 0.054228 0.174278
/muse/elements/beta_relative 0.357275 0.321194 0.488318 0.328433
/muse/elements/delta_relative 0.218058 0.199590 0.137306 0.117348
/muse/elements/gamma_relative 0.129487 0.289676 0.263259 0.175666
/muse/elements/theta_relative 0.171872 0.071949 0.056889 0.204275
/muse/elements/horseshoe 1.000000 1.000000 1.000000 1.000000
/muse/elements/is_good 1 1 1 1
/muse/elements/blink [0]
/muse/elements/jaw_clench [0]
/muse/elements/touching_forehead [1]
/muse/elements/experimental/concentration [0.0]
/muse/elements/experimental/mellow [0.1796901673078537]
/muse/elements/low_freqs_absolute 0.616347 0.720843 0.509565 0.502919
/muse/elements/alpha_absolute 0.116352 0.357385 -0.044453 0.236815
/muse/elements/beta_absolute 0.578364 0.793779 0.910028 0.512018
/muse/elements/delta_absolute 0.363933 0.587149 0.359015 0.065047
/muse/elements/gamma_absolute 0.137586 0.748923 0.641710 0.240260
/muse/elements/theta_absolute 0.260565 0.144036 -0.023643 0.305787
/muse/eeg 845.519897 829.070068 827.425110 827.425110
/muse/eeg 842.229919 825.780151 825.780151 827.425110
/muse/eeg 848.809875 799.460449 834.005005 838.940002
/muse/eeg 848.809875 838.940002 838.940002 834.005005
/muse/eeg 858.679749 806.040344 838.940002 842.229919
/muse/acc 296.875458 867.188843 363.281830
/muse/acc 296.875458 859.376343 371.094330
/muse/acc 300.781708 859.376343 378.906830
/muse/acc 300.781708 863.282593 386.719360
/muse/eeg 848.809875 827.425110 838.940002 834.005005
Unknown message         
	 Source: 'osc.udp://127.0.0.1:55693/'         
	 Address: '/muse/eeg/quantization'         
	 Types: 'iiii '         
	 Payload: '[1, 1, 1, 1]'
/muse/eeg 857.034729 827.425110 832.360046 838.940002
/muse/eeg 865.259644 824.135132 832.360046 847.164856
/muse/eeg 857.034729 807.685364 824.135132 837.294983
/muse/eeg 847.164856 806.040344 819.200195 830.715088
/muse/eeg 848.809875 840.584961 829.070068 832.360046
/muse/eeg 848.809875 817.555237 820.845215 832.360046
/muse/eeg 845.519897 810.975281 835.650024 830.715088
/muse/eeg 847.164856 809.330322 832.360046 827.425110
/muse/eeg 848.809875 834.005005 825.780151 822.490173
/muse/eeg 853.744812 819.200195 825.780151 822.490173
/muse/eeg 852.099792 824.135132 834.005005 819.200195
/muse/eeg 860.324707 806.040344 838.940002 829.070068
/muse/eeg 861.969727 825.780151 840.584961 829.070068
/muse/eeg 848.809875 835.650024 822.490173 822.490173
/muse/eeg 850.454834 809.330322 822.490173 830.715088
/muse/acc 300.781708 867.188843 394.531860
/muse/drlref 1629032.250000 1641935.500000
/muse/acc 300.781708 867.188843 398.438110
/muse/acc 300.781708 859.376343 398.438110
/muse/eeg 855.389771 815.910278 838.940002 835.650024
/muse/elements/alpha_relative 0.131769 0.120726 0.056458 0.188894
/muse/elements/beta_relative 0.348784 0.312852 0.499153 0.325696
/muse/elements/delta_relative 0.222055 0.205861 0.138426 0.115938
/muse/elements/gamma_relative 0.126392 0.283070 0.249627 0.171570
/muse/elements/theta_relative 0.171001 0.077491 0.056336 0.197900
/muse/elements/horseshoe 1.000000 1.000000 1.000000 1.000000
/muse/elements/is_good 1 1 1 1
/muse/elements/blink [0]
/muse/elements/jaw_clench [0]
/muse/elements/touching_forehead [1]
/muse/elements/experimental/concentration [0.0]
/muse/elements/experimental/mellow [0.1640339195728302]
/muse/elements/low_freqs_absolute 0.620799 0.739372 0.515226 0.489276
/muse/elements/alpha_absolute 0.146156 0.368846 -0.022557 0.268788
/muse/elements/beta_absolute 0.568900 0.782385 0.923955 0.505382
/muse/elements/delta_absolute 0.372804 0.600620 0.366938 0.056796
/muse/elements/gamma_absolute 0.128062 0.738940 0.623013 0.227012
/muse/elements/theta_absolute 0.259343 0.176298 -0.023489 0.289016
Unknown message         
	 Source: 'osc.udp://127.0.0.1:55693/'         
	 Address: '/muse/eeg/quantization'         
	 Types: 'iiii '         
	 Payload: '[1, 1, 1, 1]'
/muse/eeg 852.099792 799.460449 832.360046 840.584961
/muse/eeg 842.229919 819.200195 824.135132 830.715088
/muse/eeg 847.164856 802.750427 820.845215 838.940002
/muse/eeg 848.809875 809.330322 842.229919 837.294983
/muse/eeg 845.519897 809.330322 838.940002 835.650024
/muse/eeg 842.229919 809.330322 829.070068 832.360046
/muse/eeg 832.360046 835.650024 817.555237 814.265259
/muse/eeg 842.229919 825.780151 810.975281 824.135132
/muse/eeg 853.744812 802.750427 829.070068 835.650024
/muse/eeg 845.519897 824.135132 840.584961 830.715088
/muse/eeg 838.940002 827.425110 837.294983 827.425110
/muse/eeg 845.519897 815.910278 837.294983 830.715088
/muse/eeg 838.940002 817.555237 838.940002 827.425110
/muse/eeg 848.809875 806.040344 837.294983 837.294983
/muse/eeg 847.164856 824.135132 835.650024 835.650024
/muse/acc 292.969208 867.188843 386.719360
/muse/acc 292.969208 871.095093 382.813110
/muse/acc 300.781708 859.376343 386.719360
/muse/drlref 1629032.250000 1641935.500000
/muse/acc 304.687988 863.282593 386.719360
/muse/eeg 842.229919 824.135132 834.005005 829.070068
Unknown message         
	 Source: 'osc.udp://127.0.0.1:55693/'         
	 Address: '/muse/eeg/quantization'         
	 Types: 'iiii '         
	 Payload: '[1, 1, 1, 1]'
/muse/eeg 838.940002 815.910278 835.650024 825.780151
/muse/eeg 843.874939 806.040344 830.715088 827.425110
/muse/eeg 848.809875 797.815491 822.490173 838.940002
/muse/eeg 835.650024 819.200195 827.425110 825.780151
/muse/eeg 842.229919 830.715088 837.294983 825.780151
/muse/eeg 850.454834 820.845215 840.584961 832.360046
/muse/elements/alpha_relative 0.139112 0.122913 0.058103 0.215196
/muse/elements/beta_relative 0.341776 0.313542 0.512540 0.315378
/muse/elements/delta_relative 0.218343 0.204102 0.137475 0.115155
/muse/elements/gamma_relative 0.126212 0.275866 0.235446 0.163691
/muse/elements/theta_relative 0.174557 0.083578 0.056436 0.190581
/muse/elements/horseshoe 1.000000 1.000000 1.000000 1.000000
/muse/elements/is_good 1 1 1 1
/muse/elements/blink [0]
/muse/elements/jaw_clench [0]
/muse/elements/touching_forehead [1]
/muse/elements/experimental/concentration [0.0]
/muse/elements/experimental/mellow [0.14915315806865692]
/muse/elements/low_freqs_absolute 0.615703 0.740641 0.510184 0.481865
/muse/elements/alpha_absolute 0.164785 0.371328 -0.013223 0.329353
/muse/elements/beta_absolute 0.555163 0.778027 0.932309 0.495351
/muse/elements/delta_absolute 0.360560 0.591579 0.360804 0.057802
/muse/elements/gamma_absolute 0.122522 0.722430 0.594471 0.210544
/muse/elements/theta_absolute 0.263359 0.203822 -0.025860 0.276598
/muse/eeg 855.389771 814.265259 840.584961 837.294983
/muse/eeg 843.874939 838.940002 832.360046 827.425110
/muse/eeg 838.940002 817.555237 834.005005 829.070068
/muse/eeg 838.940002 809.330322 832.360046 825.780151
/muse/eeg 850.454834 799.460449 832.360046 834.005005
/muse/eeg 847.164856 810.975281 843.874939 832.360046
/muse/eeg 848.809875 825.780151 845.519897 832.360046
/muse/eeg 848.809875 814.265259 845.519897 837.294983
/muse/eeg 843.874939 830.715088 847.164856 827.425110
/muse/acc 308.594238 867.188843 390.625610
/muse/acc 308.594238 867.188843 386.719360
/muse/acc 308.594238 871.095093 386.719360
/muse/acc 312.500488 867.188843 382.813110
/muse/eeg 848.809875 791.235535 838.940002 837.294983
Unknown message         
	 Source: 'osc.udp://127.0.0.1:55693/'         
	 Address: '/muse/eeg/quantization'         
	 Types: 'iiii '         
	 Payload: '[1, 1, 1, 1]'
/muse/eeg 847.164856 842.229919 834.005005 834.005005
/muse/eeg 855.389771 827.425110 840.584961 840.584961
/muse/eeg 845.519897 804.395386 835.650024 837.294983
/muse/eeg 852.099792 804.395386 814.265259 835.650024
/muse/eeg 847.164856 807.685364 827.425110 830.715088
/muse/eeg 852.099792 838.940002 845.519897 830.715088
/muse/eeg 855.389771 820.845215 835.650024 835.650024
/muse/eeg 853.744812 819.200195 834.005005 830.715088
/muse/eeg 860.324707 807.685364 835.650024 837.294983
/muse/eeg 845.519897 822.490173 840.584961 820.845215
/muse/eeg 847.164856 810.975281 838.940002 822.490173
/muse/eeg 855.389771 815.910278 843.874939 832.360046
/muse/elements/alpha_relative 0.137672 0.125459 0.059232 0.256095
/muse/elements/beta_relative 0.337694 0.320296 0.524521 0.298016
/muse/elements/delta_relative 0.222668 0.197091 0.135465 0.121041
/muse/elements/gamma_relative 0.126958 0.267640 0.222426 0.149945
/muse/elements/theta_relative 0.175008 0.089514 0.058356 0.174902
/muse/elements/horseshoe 1.000000 1.000000 1.000000 1.000000
/muse/elements/is_good 1 1 1 1
/muse/elements/blink [0]
/muse/elements/jaw_clench [0]
/muse/elements/touching_forehead [1]
/muse/elements/experimental/concentration [0.0]
/muse/elements/experimental/mellow [0.135023295879364]
/muse/elements/low_freqs_absolute 0.611954 0.730109 0.500067 0.485865
/muse/elements/alpha_absolute 0.151271 0.371328 -0.014775 0.423057
/muse/elements/beta_absolute 0.540948 0.778378 0.932428 0.488895
/muse/elements/delta_absolute 0.360082 0.567493 0.344493 0.097590
/muse/elements/gamma_absolute 0.116086 0.700376 0.559850 0.190589
/muse/elements/theta_absolute 0.255484 0.224715 -0.021248 0.257452
/muse/eeg 852.099792 796.170471 822.490173 829.070068
/muse/eeg 843.874939 810.975281 825.780151 820.845215
/muse/eeg 845.519897 822.490173 824.135132 817.555237
/muse/drlref 1625806.500000 1641935.500000
/muse/acc 316.406738 863.282593 378.906830
/muse/acc 312.500488 863.282593 378.906830
/muse/acc 312.500488 863.282593 375.000580
/muse/eeg 852.099792 815.910278 827.425110 827.425110
Unknown message         
	 Source: 'osc.udp://127.0.0.1:55693/'         
	 Address: '/muse/eeg/quantization'         
	 Types: 'iiii '         
	 Payload: '[1, 1, 1, 1]'
/muse/eeg 861.969727 807.685364 819.200195 840.584961
/muse/eeg 861.969727 791.235535 837.294983 847.164856
/muse/eeg 850.454834 812.620300 843.874939 834.005005
/muse/eeg 843.874939 807.685364 829.070068 827.425110
/muse/eeg 834.005005 810.975281 837.294983 822.490173
/muse/eeg 835.650024 807.685364 838.940002 824.135132
/muse/eeg 834.005005 815.910278 834.005005 820.845215
/muse/eeg 840.584961 835.650024 835.650024 824.135132
/muse/eeg 840.584961 820.845215 825.780151 822.490173
/muse/eeg 845.519897 796.170471 829.070068 827.425110
/muse/eeg 853.744812 802.750427 843.874939 835.650024
/muse/eeg 842.229919 830.715088 835.650024 824.135132
/muse/eeg 835.650024 838.940002 825.780151 824.135132
/muse/eeg 840.584961 819.200195 829.070068 830.715088
/muse/eeg 852.099792 804.395386 820.845215 834.005005
/muse/acc 312.500488 867.188843 375.000580
/muse/acc 312.500488 867.188843 375.000580
Unknown message         
	 Source: 'osc.udp://127.0.0.1:55693/'         
	 Address: '/muse/config'         
	 Types: 's '         
	 Payload: '['{"mac_addr":"000666A069D0","serial_number":"1160-UJMN-69D0","preset":"14","filters_enabled":true,"notch_frequency_hz":60,"battery_data_enabled":true,"compression_enabled":true,"eeg_sample_frequency_hz":3520,"eeg_output_frequency_hz":220,"eeg_channel_count":4,"eeg_samples_bitwidth":10,"eeg_channel_layout":"TP9 FP1 FP2 TP10 ","eeg_downsample":16,"afe_gain":1961,"battery_percent_remaining":36,"battery_millivolts":3724,"eeg_units":"EEG_MICROVOLTS","acc_units":"ACC_GFORCE","eeg_conversion_factor":1.644980342484907,"drlref_conversion_factor":3225.806451612903,"acc_conversion_factor":3.906256109482,"acc_sample_frequency_hz":50,"drlref_sample_frequency_hz":10,"acc_data_enabled":true,"drlref_data_enabled":true,"error_data_enabled":true}\n']'
Unknown message         
	 Source: 'osc.udp://127.0.0.1:55693/'         
	 Address: '/muse/version'         
	 Types: 's '         
	 Payload: '['{"hardware_version":"16.0.0","firmware_headset_version":"7.2.7","firmware_bootloader_version":"7.2.7","firmware_type":"Research","build_number":41,"protocol_version":2}\n']'
/muse/acc 316.406738 871.095093 375.000580
/muse/drlref 1625806.500000 1641935.500000
/muse/acc 320.312988 871.095093 375.000580
/muse/eeg 848.809875 810.975281 825.780151 832.360046
Unknown message         
	 Source: 'osc.udp://127.0.0.1:55693/'         
	 Address: '/muse/eeg/quantization'         
	 Types: 'iiii '         
	 Payload: '[1, 1, 1, 1]'
/muse/eeg 843.874939 824.135132 840.584961 829.070068
/muse/eeg 850.454834 817.555237 843.874939 835.650024
/muse/elements/alpha_relative 0.150418 0.128528 0.061183 0.301888
/muse/elements/beta_relative 0.329408 0.329795 0.531355 0.277460
/muse/elements/delta_relative 0.226260 0.188220 0.133160 0.132315
/muse/elements/gamma_relative 0.123899 0.258578 0.211713 0.132264
/muse/elements/theta_relative 0.170015 0.094880 0.062589 0.156073
/muse/elements/horseshoe 1.000000 1.000000 1.000000 1.000000
/muse/elements/is_good 1 1 1 1
/muse/elements/blink [0]
/muse/elements/jaw_clench [0]
/muse/elements/touching_forehead [1]
/muse/elements/experimental/concentration [0.0]
/muse/elements/experimental/mellow [0.1222546324133873]
/muse/elements/low_freqs_absolute 0.608609 0.713733 0.490823 0.505155
/muse/elements/alpha_absolute 0.187911 0.370793 -0.014246 0.525022
/muse/elements/beta_absolute 0.528346 0.780038 0.924509 0.488377
/muse/elements/delta_absolute 0.365220 0.536460 0.323498 0.166787
/muse/elements/gamma_absolute 0.103678 0.674385 0.524872 0.166617
/muse/elements/theta_absolute 0.241099 0.238967 -0.004381 0.238505
/muse/eeg 847.164856 810.975281 843.874939 838.940002
/muse/eeg 843.874939 792.880554 829.070068 834.005005
/muse/eeg 834.005005 819.200195 825.780151 820.845215
/muse/eeg 837.294983 837.294983 829.070068 822.490173
/muse/eeg 848.809875 801.105408 829.070068 835.650024
/muse/eeg 838.940002 796.170471 832.360046 832.360046
/muse/eeg 837.294983 824.135132 825.780151 822.490173
/muse/eeg 847.164856 820.845215 827.425110 834.005005
/muse/eeg 848.809875 825.780151 834.005005 837.294983
/muse/eeg 840.584961 791.235535 829.070068 830.715088
/muse/eeg 837.294983 801.105408 835.650024 829.070068
/muse/eeg 835.650024 807.685364 843.874939 825.780151
/muse/eeg 835.650024 815.910278 843.874939 820.845215
/muse/acc 316.406738 875.001343 371.094330
/muse/acc 320.312988 867.188843 371.094330
/muse/acc 324.219269 871.095093 367.188080
/muse/eeg 829.070068 820.845215 834.005005 822.490173
Unknown message         
	 Source: 'osc.udp://127.0.0.1:55693/'         
	 Address: '/muse/eeg/quantization'         
	 Types: 'iiii '         
	 Payload: '[1, 1, 1, 1]'
/muse/eeg 837.294983 804.395386 824.135132 830.715088
/muse/eeg 829.070068 840.584961 838.940002 819.200195
/muse/eeg 834.005005 804.395386 835.650024 825.780151
/muse/eeg 829.070068 807.685364 829.070068 819.200195
/muse/eeg 830.715088 796.170471 832.360046 822.490173
/muse/eeg 834.005005 829.070068 842.229919 824.135132
/muse/eeg 829.070068 825.780151 843.874939 820.845215
/muse/eeg 832.360046 814.265259 837.294983 824.135132
/muse/elements/alpha_relative 0.154457 0.132030 0.067745 0.326453
/muse/elements/beta_relative 0.325409 0.339072 0.529607 0.263373
/muse/elements/delta_relative 0.234003 0.180274 0.130501 0.148721
/muse/elements/gamma_relative 0.120111 0.249654 0.203205 0.117395
/muse/elements/theta_relative 0.166021 0.098970 0.068942 0.144058
/muse/elements/horseshoe 1.000000 1.000000 1.000000 1.000000
/muse/elements/is_good 1 1 1 1
/muse/elements/blink [0]
/muse/elements/jaw_clench [0]
/muse/elements/touching_forehead [1]
/muse/elements/experimental/concentration [0.0]
/muse/elements/experimental/mellow [0.11006834357976913]
/muse/elements/low_freqs_absolute 0.607280 0.697090 0.486330 0.536821
/muse/elements/alpha_absolute 0.194001 0.371777 0.017391 0.584101
/muse/elements/beta_absolute 0.517624 0.781398 0.910465 0.490851
/muse/elements/delta_absolute 0.374416 0.507040 0.302125 0.242653
/muse/elements/gamma_absolute 0.084778 0.648446 0.494445 0.139930
/muse/elements/theta_absolute 0.225357 0.246609 0.024993 0.228818
/muse/eeg 838.940002 809.330322 834.005005 834.005005
/muse/eeg 837.294983 802.750427 832.360046 834.005005
/muse/eeg 835.650024 837.294983 845.519897 827.425110
/muse/eeg 843.874939 815.910278 847.164856 838.940002
/muse/eeg 847.164856 814.265259 838.940002 840.584961
/muse/eeg 857.034729 799.460449 837.294983 850.454834
/muse/eeg 857.034729 838.940002 857.034729 852.099792
/muse/acc 332.031769 878.907654 363.281830
/muse/drlref 1629032.250000 1645161.250000
/muse/acc 335.938019 886.720154 363.281830
/muse/acc 339.844269 882.813904 359.375549
/muse/acc 347.656799 878.907654 355.469299
/muse/eeg 855.389771 819.200195 842.229919 845.519897
Unknown message         
	 Source: 'osc.udp://127.0.0.1:55693/'         
	 Address: '/muse/eeg/quantization'         
	 Types: 'iiii '         
	 Payload: '[1, 1, 1, 1]'
/muse/eeg 847.164856 804.395386 835.650024 842.229919
/muse/eeg 847.164856 792.880554 843.874939 847.164856
/muse/eeg 855.389771 784.655640 847.164856 857.034729
/muse/eeg 858.679749 812.620300 852.099792 857.034729
/muse/eeg 861.969727 806.040344 843.874939 860.324707
/muse/eeg 855.389771 809.330322 847.164856 857.034729
/muse/eeg 863.614685 807.685364 842.229919 861.969727
/muse/eeg 866.904663 819.200195 847.164856 863.614685
/muse/eeg 863.614685 824.135132 845.519897 858.679749
/muse/eeg 871.839600 797.815491 843.874939 870.194580
/muse/eeg 871.839600 820.845215 852.099792 870.194580
/muse/eeg 873.484558 814.265259 847.164856 870.194580
/muse/eeg 853.744812 801.105408 837.294983 850.454834
/muse/eeg 853.744812 829.070068 838.940002 845.519897
/muse/elements/alpha_relative 0.151043 0.142001 0.071195 0.326256
/muse/elements/beta_relative 0.323369 0.343824 0.524730 0.257936
/muse/elements/delta_relative 0.245335 0.173580 0.128958 0.167135
/muse/elements/gamma_relative 0.115927 0.240146 0.198334 0.107711
/muse/elements/theta_relative 0.164326 0.100449 0.076784 0.140961
/muse/elements/horseshoe 1.000000 1.000000 1.000000 1.000000
/muse/elements/is_good 1 1 1 1
/muse/elements/blink [0]
/muse/elements/jaw_clench [0]
/muse/elements/touching_forehead [1]
/muse/elements/experimental/concentration [0.0]
/muse/elements/experimental/mellow [0.09787123650312424]
/muse/elements/low_freqs_absolute 0.611117 0.683214 0.486793 0.569366
/muse/elements/alpha_absolute 0.177794 0.397710 0.025919 0.594237
/muse/elements/beta_absolute 0.508390 0.781754 0.893406 0.492190
/muse/elements/delta_absolute 0.388452 0.484916 0.283918 0.303747
/muse/elements/gamma_absolute 0.062879 0.625894 0.470867 0.112940
/muse/elements/theta_absolute 0.214398 0.247364 0.058740 0.229779
/muse/eeg 857.034729 807.685364 847.164856 852.099792
/muse/eeg 857.034729 797.815491 843.874939 855.389771
/muse/acc 347.656799 875.001343 355.469299
/muse/acc 339.844269 867.188843 351.563049
/muse/acc 343.750549 859.376343 347.656799
/muse/drlref 1629032.250000 1641935.500000
/muse/acc 339.844269 863.282593 347.656799
/muse/eeg 857.034729 829.070068 853.744812 850.454834
Unknown message         
	 Source: 'osc.udp://127.0.0.1:55693/'         
	 Address: '/muse/eeg/quantization'         
	 Types: 'iiii '         
	 Payload: '[1, 1, 1, 1]'
/muse/eeg 861.969727 801.105408 848.809875 853.744812
/muse/eeg 865.259644 806.040344 852.099792 855.389771
/muse/eeg 855.389771 794.525513 848.809875 847.164856
/muse/eeg 853.744812 806.040344 847.164856 840.584961
/muse/eeg 853.744812 835.650024 843.874939 838.940002
/muse/eeg 861.969727 825.780151 845.519897 845.519897
/muse/eeg 863.614685 814.265259 838.940002 850.454834
/muse/eeg 870.194580 802.750427 840.584961 860.324707
/muse/eeg 853.744812 830.715088 843.874939 843.874939
/muse/eeg 858.679749 812.620300 838.940002 845.519897
/muse/eeg 855.389771 804.395386 842.229919 843.874939
/muse/eeg 861.969727 789.590576 838.940002 852.099792
/muse/eeg 870.194580 801.105408 835.650024 855.389771
/muse/eeg 865.259644 804.395386 837.294983 852.099792
/muse/eeg 863.614685 815.910278 848.809875 852.099792
/muse/acc 339.844269 863.282593 351.563049
/muse/acc 339.844269 855.470093 351.563049
/muse/acc 343.750549 855.470093 359.375549
/muse/eeg 863.614685 827.425110 852.099792 847.164856
Unknown message         
	 Source: 'osc.udp://127.0.0.1:55693/'         
	 Address: '/muse/eeg/quantization'         
	 Types: 'iiii '         
	 Payload: '[1, 1, 1, 1]'
/muse/eeg 858.679749 807.685364 848.809875 847.164856
/muse/eeg 853.744812 832.360046 842.229919 842.229919
/muse/eeg 858.679749 791.235535 825.780151 848.809875
/muse/elements/alpha_relative 0.159421 0.147936 0.073624 0.313312
/muse/elements/beta_relative 0.314142 0.347148 0.518042 0.256884
/muse/elements/delta_relative 0.255577 0.170141 0.128905 0.183856
/muse/elements/gamma_relative 0.109471 0.233643 0.195672 0.101555
/muse/elements/theta_relative 0.161389 0.101131 0.083757 0.144393
/muse/elements/horseshoe 1.000000 1.000000 1.000000 1.000000
/muse/elements/is_good 1 1 1 1
/muse/elements/blink [0]
/muse/elements/jaw_clench [0]
/muse/elements/touching_forehead [1]
/muse/elements/experimental/concentration [0.0]
/muse/elements/experimental/mellow [0.08579877763986588]
/muse/elements/low_freqs_absolute 0.624502 0.673076 0.490736 0.597923
/muse/elements/alpha_absolute 0.206945 0.409743 0.030064 0.577697
/muse/elements/beta_absolute 0.501527 0.780185 0.877411 0.491458
/muse/elements/delta_absolute 0.411923 0.470480 0.273315 0.346197
/muse/elements/gamma_absolute 0.043700 0.608222 0.454575 0.088422
/muse/elements/theta_absolute 0.212276 0.244555 0.086069 0.241265
/muse/eeg 855.389771 812.620300 840.584961 848.809875
/muse/eeg 853.744812 814.265259 842.229919 845.519897
/muse/eeg 847.164856 822.490173 847.164856 838.940002
/muse/eeg 853.744812 824.135132 850.454834 840.584961
/muse/eeg 860.324707 806.040344 847.164856 850.454834
/muse/eeg 853.744812 796.170471 838.940002 842.229919
/muse/eeg 840.584961 794.525513 835.650024 827.425110
/muse/eeg 847.164856 830.715088 850.454834 825.780151
/muse/eeg 853.744812 815.910278 850.454834 834.005005
/muse/eeg 848.809875 815.910278 848.809875 835.650024
/muse/eeg 850.454834 789.590576 829.070068 834.005005
/muse/eeg 843.874939 820.845215 837.294983 825.780151
/muse/acc 343.750549 859.376343 359.375549
/muse/drlref 1629032.250000 1645161.250000
/muse/acc 347.656799 859.376343 359.375549
/muse/acc 347.656799 859.376343 359.375549
/muse/acc 351.563049 855.470093 363.281830
/muse/eeg 845.519897 812.620300 838.940002 825.780151
Unknown message         
	 Source: 'osc.udp://127.0.0.1:55693/'         
	 Address: '/muse/eeg/quantization'         
	 Types: 'iiii '         
	 Payload: '[1, 1, 1, 1]'
/muse/eeg 837.294983 810.975281 838.940002 825.780151
/muse/eeg 848.809875 809.330322 840.584961 835.650024
/muse/eeg 857.034729 799.460449 829.070068 843.874939
/muse/eeg 853.744812 817.555237 834.005005 838.940002
/muse/eeg 852.099792 814.265259 838.940002 834.005005
/muse/eeg 858.679749 810.975281 838.940002 838.940002
/muse/eeg 852.099792 809.330322 843.874939 835.650024
/muse/eeg 837.294983 820.845215 837.294983 820.845215
/muse/eeg 842.229919 822.490173 850.454834 824.135132
/muse/elements/alpha_relative 0.165694 0.151326 0.075138 0.290455
/muse/elements/beta_relative 0.300282 0.348466 0.510746 0.254763
/muse/elements/delta_relative 0.270106 0.168984 0.131348 0.203137
/muse/elements/gamma_relative 0.102936 0.229648 0.194391 0.097122
/muse/elements/theta_relative 0.160982 0.101575 0.088377 0.154523
/muse/elements/horseshoe 1.000000 1.000000 1.000000 1.000000
/muse/elements/is_good 1 1 1 1
/muse/elements/blink [0]
/muse/elements/jaw_clench [0]
/muse/elements/touching_forehead [1]
/muse/elements/experimental/concentration [0.0]
/muse/elements/experimental/mellow [0.07377497106790543]
/muse/elements/low_freqs_absolute 0.654553 0.665280 0.499211 0.636346
/muse/elements/alpha_absolute 0.239294 0.412931 0.033194 0.545954
/muse/elements/beta_absolute 0.497516 0.775178 0.865536 0.489012
/muse/elements/delta_absolute 0.451522 0.460864 0.275756 0.390664
/muse/elements/gamma_absolute 0.032554 0.594081 0.446007 0.070192
/muse/elements/theta_absolute 0.226764 0.239803 0.103669 0.271870
/muse/eeg 847.164856 810.975281 847.164856 829.070068
/muse/eeg 845.519897 804.395386 842.229919 827.425110
/muse/eeg 842.229919 819.200195 845.519897 825.780151
/muse/eeg 843.874939 827.425110 837.294983 825.780151
/muse/eeg 847.164856 825.780151 830.715088 824.135132
/muse/eeg 843.874939 814.265259 832.360046 827.425110
/muse/acc 359.375549 859.376343 363.281830
/muse/acc 363.281830 859.376343 363.281830
/muse/acc 371.094330 863.282593 363.281830
/muse/drlref 1629032.250000 1641935.500000
/muse/acc 371.094330 859.376343 363.281830
/muse/eeg 843.874939 792.880554 835.650024 832.360046
Unknown message         
	 Source: 'osc.udp://127.0.0.1:55693/'         
	 Address: '/muse/eeg/quantization'         
	 Types: 'iiii '         
	 Payload: '[1, 1, 1, 1]'
/muse/eeg 834.005005 830.715088 838.940002 822.490173
/muse/eeg 843.874939 812.620300 842.229919 830.715088
/muse/eeg 847.164856 809.330322 842.229919 830.715088
/muse/eeg 843.874939 804.395386 837.294983 829.070068
/muse/eeg 842.229919 814.265259 840.584961 829.070068
/muse/eeg 850.454834 840.584961 845.519897 832.360046
/muse/eeg 838.940002 810.975281 840.584961 824.135132
/muse/eeg 842.229919 804.395386 842.229919 824.135132
/muse/eeg 850.454834 802.750427 847.164856 832.360046
/muse/eeg 843.874939 834.005005 847.164856 819.200195
/muse/eeg 843.874939 817.555237 838.940002 824.135132
/muse/eeg 837.294983 804.395386 840.584961 825.780151
/muse/eeg 835.650024 789.590576 842.229919 830.715088
/muse/eeg 822.490173 801.105408 852.099792 819.200195
/muse/eeg 822.490173 817.555237 855.389771 822.490173
/muse/elements/alpha_relative 0.160642 0.157022 0.075290 0.258933
/muse/elements/beta_relative 0.281051 0.346987 0.502179 0.242985
/muse/elements/delta_relative 0.297209 0.167576 0.138053 0.237238
/muse/elements/gamma_relative 0.097151 0.226410 0.194045 0.092181
/muse/elements/theta_relative 0.163946 0.102004 0.090433 0.168663
/muse/elements/horseshoe 1.000000 1.000000 1.000000 1.000000
/muse/elements/is_good 1 1 1 1
/muse/elements/blink [0]
/muse/elements/jaw_clench [0]
/muse/elements/touching_forehead [1]
/muse/elements/experimental/concentration [0.0]
/muse/elements/experimental/mellow [0.06157355755567551]
/muse/elements/low_freqs_absolute 0.709542 0.657356 0.515318 0.707531
/muse/elements/alpha_absolute 0.251554 0.422629 0.033194 0.512298
/muse/elements/beta_absolute 0.494480 0.766982 0.857318 0.484691
/muse/elements/delta_absolute 0.518756 0.450881 0.296504 0.474296
/muse/elements/gamma_absolute 0.033144 0.581563 0.444363 0.063753
/muse/elements/theta_absolute 0.260397 0.235284 0.112786 0.326130
/muse/acc 371.094330 855.470093 359.375549
/muse/acc 375.000580 851.563843 363.281830
/muse/acc 371.094330 851.563843 367.188080
/muse/eeg 822.490173 822.490173 843.874939 820.845215
Unknown message         
	 Source: 'osc.udp://127.0.0.1:55693/'         
	 Address: '/muse/eeg/quantization'         
	 Types: 'iiii '         
	 Payload: '[1, 1, 1, 1]'
/muse/eeg 829.070068 794.525513 834.005005 822.490173
/muse/eeg 830.715088 804.395386 843.874939 824.135132
/muse/eeg 832.360046 810.975281 847.164856 824.135132
/muse/eeg 834.005005 801.105408 847.164856 827.425110
/muse/eeg 827.425110 822.490173 850.454834 814.265259
/muse/eeg 834.005005 774.785767 830.715088 825.780151
/muse/eeg 834.005005 794.525513 838.940002 820.845215
/muse/eeg 832.360046 807.685364 850.454834 822.490173
/muse/eeg 834.005005 809.330322 848.809875 827.425110
/muse/eeg 835.650024 837.294983 860.324707 824.135132
/muse/eeg 843.874939 810.975281 858.679749 835.650024
/muse/eeg 840.584961 822.490173 853.744812 829.070068
/muse/eeg 827.425110 840.584961 843.874939 817.555237
/muse/eeg 830.715088 807.685364 825.780151 814.265259
/muse/eeg 834.005005 802.750427 825.780151 817.555237
/muse/acc 367.188080 855.470093 371.094330
/muse/drlref 1629032.250000 1645161.250000
/muse/acc 359.375549 851.563843 375.000580
/muse/acc 347.656799 855.470093 378.906830
/muse/acc 339.844269 855.470093 382.813110
/muse/eeg 830.715088 797.815491 830.715088 820.845215
Unknown message         
	 Source: 'osc.udp://127.0.0.1:55693/'         
	 Address: '/muse/eeg/quantization'         
	 Types: 'iiii '         
	 Payload: '[1, 1, 1, 1]'
/muse/eeg 834.005005 796.170471 840.584961 815.910278
/muse/eeg 834.005005 814.265259 843.874939 817.555237
/muse/eeg 834.005005 819.200195 842.229919 824.135132
/muse/eeg 837.294983 820.845215 847.164856 824.135132
/muse/eeg 842.229919 810.975281 847.164856 830.715088
/muse/elements/alpha_relative 0.150599 0.161070 0.075676 0.239345
/muse/elements/beta_relative 0.254071 0.347128 0.491662 0.213726
/muse/elements/delta_relative 0.336221 0.165233 0.148337 0.284637
/muse/elements/gamma_relative 0.091741 0.224704 0.193732 0.084375
/muse/elements/theta_relative 0.167367 0.101865 0.090592 0.177917
/muse/elements/horseshoe 1.000000 1.000000 1.000000 1.000000
/muse/elements/is_good 1 1 1 1
/muse/elements/blink [0]
/muse/elements/jaw_clench [0]
/muse/elements/touching_forehead [1]
/muse/elements/experimental/concentration [0.0]
/muse/elements/experimental/mellow [0.04957408085465431]
/muse/elements/low_freqs_absolute 0.785392 0.645316 0.536787 0.811747
/muse/elements/alpha_absolute 0.261140 0.425659 0.037477 0.525610
/muse/elements/beta_absolute 0.488272 0.759134 0.850184 0.476442
/muse/elements/delta_absolute 0.609942 0.436742 0.329767 0.600877
/muse/elements/gamma_absolute 0.045883 0.570255 0.445718 0.072799
/muse/elements/theta_absolute 0.306987 0.226671 0.115608 0.396802
/muse/eeg 847.164856 827.425110 843.874939 832.360046
/muse/eeg 847.164856 814.265259 840.584961 829.070068
/muse/eeg 835.650024 807.685364 838.940002 822.490173
/muse/eeg 830.715088 827.425110 848.809875 814.265259
/muse/eeg 842.229919 820.845215 845.519897 822.490173
/muse/eeg 837.294983 819.200195 837.294983 822.490173
/muse/eeg 838.940002 796.170471 829.070068 825.780151
/muse/eeg 838.940002 822.490173 834.005005 817.555237
/muse/eeg 842.229919 827.425110 835.650024 820.845215
/muse/eeg 850.454834 815.910278 848.809875 830.715088
/muse/acc 335.938019 859.376343 390.625610
/muse/acc 328.125519 863.282593 390.625610
/muse/acc 328.125519 859.376343 390.625610
/muse/drlref 1629032.250000 1645161.250000
/muse/eeg 855.389771 812.620300 850.454834 835.650024
Unknown message         
	 Source: 'osc.udp://127.0.0.1:55693/'         
	 Address: '/muse/eeg/quantization'         
	 Types: 'iiii '         
	 Payload: '[1, 1, 1, 1]'
/muse/eeg 852.099792 781.365662 837.294983 837.294983
/muse/eeg 845.519897 807.685364 843.874939 827.425110
/muse/eeg 840.584961 794.525513 827.425110 820.845215
/muse/eeg 832.360046 806.040344 825.780151 815.910278
/muse/eeg 840.584961 814.265259 837.294983 825.780151
/muse/eeg 848.809875 822.490173 835.650024 834.005005
/muse/eeg 845.519897 835.650024 820.845215 829.070068
/muse/eeg 845.519897 814.265259 829.070068 827.425110
/muse/eeg 852.099792 796.170471 842.229919 830.715088
/muse/eeg 858.679749 783.010620 843.874939 840.584961
/muse/eeg 855.389771 820.845215 853.744812 837.294983
/muse/elements/alpha_relative 0.135987 0.164244 0.076796 0.217949
/muse/elements/beta_relative 0.224477 0.351692 0.480680 0.181279
/muse/elements/delta_relative 0.382029 0.158211 0.158579 0.340147
/muse/elements/gamma_relative 0.087939 0.225349 0.194055 0.077836
/muse/elements/theta_relative 0.169569 0.100504 0.089890 0.182788
/muse/elements/horseshoe 1.000000 1.000000 1.000000 1.000000
/muse/elements/is_good 1 1 1 1
/muse/elements/blink [0]
/muse/elements/jaw_clench [0]
/muse/elements/touching_forehead [1]
/muse/elements/experimental/concentration [0.0]
/muse/elements/experimental/mellow [0.037798184901475906]
/muse/elements/low_freqs_absolute 0.865538 0.622991 0.553901 0.923294
/muse/elements/alpha_absolute 0.257412 0.425659 0.043969 0.543201
/muse/elements/beta_absolute 0.475087 0.756331 0.840484 0.463193
/muse/elements/delta_absolute 0.706011 0.409406 0.358875 0.736513
/muse/elements/gamma_absolute 0.068095 0.563025 0.446552 0.096025
/muse/elements/theta_absolute 0.353262 0.212355 0.112338 0.466795
/muse/eeg 843.874939 824.135132 845.519897 822.490173
/muse/eeg 838.940002 802.750427 837.294983 822.490173
/muse/eeg 834.005005 801.105408 832.360046 815.910278
/muse/eeg 827.425110 806.040344 815.910278 809.330322
/muse/acc 324.219269 863.282593 386.719360
/muse/acc 328.125519 859.376343 382.813110
/muse/acc 339.844269 855.470093 386.719360
/muse/acc 339.844269 855.470093 386.719360
/muse/eeg 820.845215 825.780151 814.265259 802.750427
Unknown message         
	 Source: 'osc.udp://127.0.0.1:55693/'         
	 Address: '/muse/eeg/quantization'         
	 Types: 'iiii '         
	 Payload: '[1, 1, 1, 1]'
/muse/eeg 809.330322 829.070068 832.360046 792.880554
/muse/eeg 801.105408 806.040344 825.780151 784.655640
/muse/eeg 797.815491 792.880554 824.135132 779.720703
/muse/eeg 794.525513 809.330322 834.005005 779.720703
/muse/eeg 779.720703 824.135132 829.070068 763.270874
/muse/eeg 778.075684 809.330322 835.650024 761.625916
/muse/eeg 784.655640 812.620300 832.360046 769.850830
/muse/eeg 786.300598 838.940002 817.555237 763.270874
/muse/eeg 789.590576 819.200195 815.910278 761.625916
/muse/eeg 778.075684 809.330322 827.425110 751.756042
/muse/eeg 797.815491 802.750427 819.200195 774.785767
/muse/eeg 789.590576 815.910278 812.620300 766.560852
/muse/eeg 784.655640 829.070068 825.780151 766.560852
/muse/eeg 806.040344 824.135132 835.650024 781.365662
/muse/eeg 809.330322 814.265259 830.715088 784.655640
/muse/eeg 809.330322 794.525513 822.490173 791.235535
/muse/acc 328.125519 855.470093 382.813110
