/muse/acc 402.344391 828.126282 343.750549
/muse/acc 394.531860 843.751343 347.656799
/muse/acc 386.719360 859.376343 347.656799
/muse/eeg 848.809875 797.815491 848.809875 827.425110
/muse/eeg/quantization 1 1 1 1
/muse/eeg 853.744812 827.425110 853.744812 829.070068
/muse/eeg 850.454834 817.555237 837.294983 829.070068
/muse/eeg 843.874939 817.555237 835.650024 814.265259
/muse/eeg 852.099792 799.460449 834.005005 827.425110
/muse/eeg 840.584961 822.490173 834.005005 819.200195
/muse/eeg 842.229919 842.229919 837.294983 819.200195
/muse/eeg 832.360046 824.135132 829.070068 817.555237
/muse/eeg 827.425110 806.040344 820.845215 810.975281
/muse/eeg 834.005005 806.040344 817.555237 814.265259
/muse/elements/alpha_relative 0.260924 0.068203 0.095769 0.267316
/muse/elements/beta_relative 0.288236 0.456654 0.431243 0.265992
/muse/elements/delta_relative 0.095377 0.050436 0.051706 0.137542
/muse/elements/gamma_relative 0.198530 0.366201 0.394919 0.171854
/muse/elements/theta_relative 0.156933 0.058506 0.026364 0.157296
/muse/elements/horseshoe 1.000000 1.000000 1.000000 1.000000
/muse/elements/is_good 1 1 1 1
/muse/elements/blink [0]
/muse/elements/jaw_clench [0]
/muse/elements/touching_forehead [1]
/muse/elements/experimental/concentration [0.9674776196479797]
/muse/elements/experimental/mellow [0.0]
/muse/elements/low_freqs_absolute 0.633962 0.246168 0.246618 0.651194
/muse/elements/alpha_absolute 0.648542 0.042773 0.335362 0.608636
/muse/elements/beta_absolute 0.691775 0.868556 0.988857 0.606481
/muse/elements/delta_absolute 0.211472 -0.088286 0.067675 0.320046
/muse/elements/gamma_absolute 0.529853 0.772689 0.950643 0.416772
/muse/elements/theta_absolute 0.427741 -0.023827 -0.224856 0.378328
/muse/eeg 830.715088 824.135132 824.135132 807.685364
/muse/eeg 830.715088 819.200195 824.135132 809.330322
/muse/eeg 825.780151 835.650024 824.135132 801.105408
/muse/eeg 840.584961 830.715088 832.360046 815.910278
/muse/eeg 830.715088 827.425110 825.780151 804.395386
/muse/eeg 824.135132 835.650024 814.265259 792.880554
/muse/drlref 1629032.250000 1641935.500000
/muse/acc 378.906830 859.376343 355.469299
/muse/acc 367.188080 855.470093 359.375549
/muse/acc 351.563049 855.470093 359.375549
/muse/eeg 832.360046 847.164856 817.555237 802.750427
/muse/eeg/quantization 1 1 1 1
/muse/eeg 845.519897 819.200195 820.845215 807.685364
/muse/eeg 837.294983 829.070068 827.425110 797.815491
/muse/eeg 842.229919 827.425110 827.425110 801.105408
/muse/eeg 842.229919 819.200195 827.425110 799.460449
/muse/eeg 819.200195 819.200195 827.425110 789.590576
/muse/eeg 809.330322 829.070068 820.845215 786.300598
/muse/eeg 807.685364 840.584961 835.650024 778.075684
/muse/eeg 791.235535 847.164856 835.650024 756.690979
/muse/eeg 766.560852 817.555237 834.005005 738.596191
/muse/eeg 756.690979 802.750427 830.715088 728.726318
/muse/eeg 728.726318 829.070068 829.070068 712.276489
/muse/eeg 723.791321 837.294983 827.425110 695.826660
/muse/eeg 725.436340 822.490173 829.070068 690.891724
/muse/eeg 705.696594 822.490173 830.715088 676.086914
/muse/eeg 702.406616 799.460449 827.425110 676.086914
/muse/elements/alpha_relative 0.287127 0.068865 0.095388 0.241581
/muse/elements/beta_relative 0.283797 0.467717 0.437237 0.283412
/muse/elements/delta_relative 0.087479 0.047327 0.049461 0.143646
/muse/elements/gamma_relative 0.193940 0.360452 0.390784 0.175626
/muse/elements/theta_relative 0.147657 0.055639 0.027130 0.155735
/muse/elements/horseshoe 1.000000 1.000000 1.000000 1.000000
/muse/elements/is_good 1 1 1 1
/muse/elements/blink [0]
/muse/elements/jaw_clench [0]
/muse/elements/touching_forehead [1]
/muse/elements/experimental/concentration [0.9561192989349365]
/muse/elements/experimental/mellow [0.0]
/muse/elements/low_freqs_absolute 0.615355 0.227334 0.247124 0.630914
/muse/elements/alpha_absolute 0.702110 0.052636 0.342442 0.537753
/muse/elements/beta_absolute 0.697044 0.884621 1.003665 0.607108
/muse/elements/delta_absolute 0.185939 -0.110251 0.057210 0.311983
/muse/elements/gamma_absolute 0.531704 0.771485 0.954884 0.399279
/muse/elements/theta_absolute 0.413289 -0.039980 -0.203604 0.347077
/muse/acc 347.656799 859.376343 363.281830
/muse/eeg 695.826660 837.294983 835.650024 672.796936
/muse/acc 359.375549 855.470093 363.281830
/muse/drlref 1629032.250000 1645161.250000
/muse/acc 375.000580 847.657593 363.281830
/muse/acc 375.000580 832.032532 363.281830
/muse/eeg 704.051575 842.229919 825.780151 674.441956
/muse/eeg/quantization 1 1 1 1
/muse/eeg 710.631531 822.490173 815.910278 681.021851
/muse/eeg 718.856384 820.845215 820.845215 685.956787
/muse/eeg 720.501404 829.070068 838.940002 694.181702
/muse/eeg 720.501404 852.099792 822.490173 685.956787
/muse/eeg 740.241150 845.519897 812.620300 705.696594
/muse/eeg 743.531128 806.040344 819.200195 720.501404
/muse/eeg 732.016235 814.265259 835.650024 695.826660
/muse/eeg 736.951172 829.070068 857.034729 695.826660
/muse/eeg 750.111023 820.845215 837.294983 715.566467
/muse/eeg 758.335938 819.200195 837.294983 730.371277
/muse/eeg 781.365662 817.555237 848.809875 751.756042
/muse/eeg 783.010620 842.229919 870.194580 756.690979
/muse/eeg 801.105408 855.389771 876.774536 769.850830
/muse/eeg 801.105408 827.425110 843.874939 771.495789
/muse/eeg 806.040344 792.880554 834.005005 784.655640
/muse/acc 375.000580 816.407532 359.375549
/muse/acc 375.000580 812.501282 359.375549
/muse/acc 371.094330 828.126282 351.563049
/muse/acc 375.000580 839.845093 351.563049
/muse/eeg 830.715088 820.845215 843.874939 806.040344
/muse/eeg/quantization 1 1 1 1
/muse/eeg 829.070068 842.229919 847.164856 797.815491
/muse/eeg 843.874939 812.620300 834.005005 812.620300
/muse/eeg 840.584961 797.815491 838.940002 812.620300
/muse/eeg 834.005005 783.010620 832.360046 812.620300
/muse/elements/alpha_relative 0.290720 0.073956 0.097222 0.210653
/muse/elements/beta_relative 0.288452 0.474033 0.440795 0.302300
/muse/elements/delta_relative 0.082648 0.046112 0.046397 0.151212
/muse/elements/gamma_relative 0.196356 0.353633 0.386934 0.181403
/muse/elements/theta_relative 0.141824 0.052266 0.028653 0.154431
/muse/elements/horseshoe 1.000000 1.000000 1.000000 1.000000
/muse/elements/is_good 1 1 1 1
/muse/elements/blink [0]
/muse/elements/jaw_clench [0]
/muse/elements/touching_forehead [1]
/muse/elements/experimental/concentration [0.9444292783737183]
/muse/elements/experimental/mellow [0.0]
/muse/elements/low_freqs_absolute 0.589796 0.214793 0.244457 0.611681
/muse/elements/alpha_absolute 0.702110 0.090869 0.356873 0.450035
/muse/elements/beta_absolute 0.698709 0.897703 1.013348 0.606905
/muse/elements/delta_absolute 0.155867 -0.114292 0.035597 0.306053
/muse/elements/gamma_absolute 0.531678 0.770447 0.956747 0.385112
/muse/elements/theta_absolute 0.390384 -0.059885 -0.173726 0.315201
/muse/eeg 838.940002 814.265259 852.099792 820.845215
/muse/eeg 838.940002 822.490173 860.324707 824.135132
/muse/eeg 860.324707 814.265259 853.744812 837.294983
/muse/eeg 855.389771 807.685364 850.454834 840.584961
/muse/eeg 840.584961 814.265259 843.874939 837.294983
/muse/eeg 834.005005 809.330322 829.070068 830.715088
/muse/eeg 847.164856 804.395386 838.940002 842.229919
/muse/eeg 857.034729 802.750427 848.809875 850.454834
/muse/eeg 868.549622 783.010620 848.809875 855.389771
/muse/eeg 857.034729 809.330322 857.034729 852.099792
/muse/eeg 875.129517 787.945557 850.454834 861.969727
/muse/drlref 1629032.250000 1645161.250000
/muse/acc 363.281830 828.126282 347.656799
/muse/acc 371.094330 816.407532 351.563049
/muse/acc 378.906830 804.688782 359.375549
/muse/eeg 868.549622 799.460449 834.005005 855.389771
/muse/eeg/quantization 1 1 1 1
/muse/eeg 865.259644 778.075684 834.005005 865.259644
/muse/eeg 871.839600 797.815491 863.614685 866.904663
/muse/eeg 871.839600 802.750427 847.164856 865.259644
/muse/eeg 873.484558 783.010620 843.874939 868.549622
/muse/eeg 873.484558 802.750427 848.809875 861.969727
/muse/eeg 868.549622 796.170471 838.940002 866.904663
/muse/eeg 868.549622 825.780151 845.519897 861.969727
/muse/eeg 875.129517 807.685364 838.940002 861.969727
/muse/eeg 883.354431 789.590576 845.519897 861.969727
/muse/eeg 903.094238 786.300598 840.584961 883.354431
/muse/elements/alpha_relative 0.295853 0.077878 0.096721 0.182454
/muse/elements/beta_relative 0.292822 0.475573 0.441251 0.322741
/muse/elements/delta_relative 0.080016 0.047876 0.044975 0.158025
/muse/elements/gamma_relative 0.199692 0.349135 0.385976 0.189636
/muse/elements/theta_relative 0.131618 0.049538 0.031077 0.147144
/muse/elements/horseshoe 1.000000 1.000000 1.000000 1.000000
/muse/elements/is_good 1 1 1 1
/muse/elements/blink [0]
/muse/elements/jaw_clench [0]
/muse/elements/touching_forehead [1]
/muse/elements/experimental/concentration [0.9326108694076538]
/muse/elements/experimental/mellow [0.0]
/muse/elements/low_freqs_absolute 0.556619 0.214998 0.252326 0.583234
/muse/elements/alpha_absolute 0.702110 0.117789 0.356737 0.359848
/muse/elements/beta_absolute 0.697637 0.903594 1.015903 0.607549
/muse/elements/delta_absolute 0.134210 -0.093508 0.024188 0.297421
/muse/elements/gamma_absolute 0.531394 0.769370 0.957777 0.376616
/muse/elements/theta_absolute 0.350349 -0.078681 -0.136348 0.266436
/muse/eeg 894.869324 804.395386 842.229919 875.129517
/muse/eeg 875.129517 807.685364 843.874939 853.744812
/muse/eeg 880.064453 804.395386 853.744812 865.259644
/muse/eeg 889.934387 794.525513 837.294983 861.969727
/muse/eeg 898.159241 786.300598 842.229919 871.839600
/muse/acc 382.813110 796.876221 367.188080
/muse/acc 367.188080 800.782532 367.188080
Unknown message         
	 Source: 'osc.udp://127.0.0.1:55693/'         
	 Address: '/muse/config'         
	 Types: 's '         
	 Payload: '['{"mac_addr":"000666A069D0","serial_number":"1160-UJMN-69D0","preset":"14","filters_enabled":true,"notch_frequency_hz":60,"battery_data_enabled":true,"compression_enabled":true,"eeg_sample_frequency_hz":3520,"eeg_output_frequency_hz":220,"eeg_channel_count":4,"eeg_samples_bitwidth":10,"eeg_channel_layout":"TP9 FP1 FP2 TP10 ","eeg_downsample":16,"afe_gain":1961,"battery_percent_remaining":36,"battery_millivolts":3724,"eeg_units":"EEG_MICROVOLTS","acc_units":"ACC_GFORCE","eeg_conversion_factor":1.644980342484907,"drlref_conversion_factor":3225.806451612903,"acc_conversion_factor":3.906256109482,"acc_sample_frequency_hz":50,"drlref_sample_frequency_hz":10,"acc_data_enabled":true,"drlref_data_enabled":true,"error_data_enabled":true}\n']'
Unknown message         
	 Source: 'osc.udp://127.0.0.1:55693/'         
	 Address: '/muse/version'         
	 Types: 's '         
	 Payload: '['{"hardware_version":"16.0.0","firmware_headset_version":"7.2.7","firmware_bootloader_version":"7.2.7","firmware_type":"Research","build_number":41,"protocol_version":2}\n']'
/muse/drlref 1629032.250000 1641935.500000
/muse/acc 363.281830 792.969971 375.000580
/muse/acc 378.906830 761.719971 398.438110
/muse/eeg 881.709473 809.330322 852.099792 853.744812
/muse/eeg/quantization 1 1 1 1
/muse/eeg 878.419495 784.655640 843.874939 865.259644
/muse/eeg 873.484558 794.525513 857.034729 870.194580
/muse/eeg 886.644409 783.010620 847.164856 881.709473
/muse/eeg 886.644409 799.460449 837.294983 886.644409
/muse/eeg 868.549622 817.555237 848.809875 870.194580
/muse/eeg 878.419495 787.945557 853.744812 871.839600
/muse/eeg 876.774536 786.300598 834.005005 868.549622
/muse/eeg 896.514282 801.105408 838.940002 866.904663
/muse/eeg 899.804260 829.070068 838.940002 871.839600
/muse/eeg 903.094238 804.395386 825.780151 883.354431
/muse/eeg 893.224304 786.300598 824.135132 873.484558
/muse/eeg 881.709473 806.040344 843.874939 871.839600
/muse/eeg 873.484558 812.620300 860.324707 868.549622
/muse/eeg 848.809875 820.845215 863.614685 850.454834
/muse/eeg 860.324707 786.300598 848.809875 863.614685
/muse/acc 394.531860 757.813660 417.969391
/muse/acc 402.344391 761.719971 433.594421
/muse/acc 414.063141 761.719971 449.219452
/muse/eeg 873.484558 789.590576 827.425110 866.904663
/muse/elements/alpha_relative 0.302808 0.079303 0.108893 0.164272
/muse/elements/beta_relative 0.296442 0.470176 0.429049 0.342669
/muse/elements/delta_relative 0.076462 0.056779 0.048372 0.156618
/muse/elements/gamma_relative 0.204149 0.345325 0.379819 0.201128
/muse/elements/theta_relative 0.120139 0.048418 0.033867 0.135313
/muse/elements/horseshoe 1.000000 1.000000 1.000000 1.000000
/muse/elements/is_good 1 1 1 1
/muse/elements/blink [1]
/muse/elements/jaw_clench [0]
/muse/elements/touching_forehead [1]
/muse/elements/experimental/concentration [0.9207924008369446]
/muse/elements/experimental/mellow [0.0]
/muse/elements/low_freqs_absolute 0.514529 0.250860 0.293165 0.538289
/muse/elements/alpha_absolute 0.702110 0.128145 0.415088 0.288574
/muse/elements/beta_absolute 0.692882 0.901117 1.010595 0.607884
/muse/elements/delta_absolute 0.104390 -0.016953 0.062679 0.267850
/muse/elements/gamma_absolute 0.530889 0.767084 0.957665 0.376481
/muse/elements/theta_absolute 0.300627 -0.086140 -0.092132 0.204350
/muse/eeg/quantization 1 1 1 1
/muse/eeg 863.614685 794.525513 838.940002 853.744812
/muse/eeg 868.549622 822.490173 834.005005 853.744812
/muse/eeg 866.904663 796.170471 845.519897 865.259644
/muse/eeg 843.874939 814.265259 855.389771 860.324707
/muse/eeg 861.969727 815.910278 853.744812 865.259644
/muse/eeg 837.294983 838.940002 855.389771 843.874939
/muse/eeg 855.389771 861.969727 843.874939 835.650024
/muse/eeg 878.419495 810.975281 847.164856 855.389771
/muse/eeg 863.614685 776.430725 850.454834 852.099792
/muse/eeg 845.519897 797.815491 853.744812 853.744812
/muse/eeg 842.229919 815.910278 824.135132 866.904663
/muse/eeg 847.164856 814.265259 794.525513 870.194580
/muse/eeg 848.809875 835.650024 848.809875 855.389771
/muse/eeg 845.519897 830.715088 860.324707 850.454834
/muse/eeg 863.614685 860.324707 875.129517 845.519897
/muse/acc 421.875671 765.626221 460.938232
/muse/drlref 1629032.250000 1641935.500000
/muse/acc 445.313202 750.001160 488.282013
/muse/acc 476.563232 757.813660 511.719543
/muse/acc 488.282013 769.532471 523.438293
/muse/eeg 880.064453 861.969727 888.289368 843.874939
/muse/eeg/quantization 1 1 1 1
/muse/eeg 868.549622 814.265259 850.454834 857.034729
/muse/eeg 845.519897 756.690979 845.519897 858.679749
/muse/eeg 822.490173 806.040344 861.969727 852.099792
/muse/eeg 827.425110 868.549622 861.969727 852.099792
/muse/eeg 830.715088 878.419495 865.259644 857.034729
/muse/eeg 852.099792 863.614685 873.484558 845.519897
/muse/elements/alpha_relative 0.302187 0.079848 0.139513 0.165220
/muse/elements/beta_relative 0.303043 0.453468 0.401132 0.356747
/muse/elements/delta_relative 0.071810 0.082070 0.058995 0.144788
/muse/elements/gamma_relative 0.211070 0.335974 0.364141 0.213238
/muse/elements/theta_relative 0.111890 0.048640 0.036219 0.120006
/muse/elements/horseshoe 1.000000 1.000000 1.000000 1.000000
/muse/elements/is_good 1 1 1 1
/muse/elements/blink [0]
/muse/elements/jaw_clench [0]
/muse/elements/touching_forehead [1]
/muse/elements/experimental/concentration [0.9091585874557495]
/muse/elements/experimental/mellow [0.0]
/muse/elements/low_freqs_absolute 0.469557 0.352246 0.373139 0.478615
/muse/elements/alpha_absolute 0.685723 0.138198 0.539049 0.273770
/muse/elements/beta_absolute 0.686951 0.892482 0.997723 0.608067
/muse/elements/delta_absolute 0.061635 0.150121 0.165252 0.216440
/muse/elements/gamma_absolute 0.529874 0.762242 0.955705 0.384571
/muse/elements/theta_absolute 0.254238 -0.077069 -0.046624 0.134910
/muse/eeg 852.099792 847.164856 847.164856 860.324707
/muse/eeg 847.164856 857.034729 860.324707 858.679749
/muse/eeg 853.744812 880.064453 870.194580 840.584961
/muse/eeg 848.809875 904.739197 858.679749 845.519897
/muse/eeg 853.744812 804.395386 875.129517 837.294983
/muse/eeg 842.229919 860.324707 861.969727 837.294983
/muse/eeg 863.614685 914.609070 799.460449 829.070068
/muse/eeg 842.229919 926.123962 847.164856 845.519897
/muse/eeg 806.040344 947.508667 880.064453 812.620300
/muse/acc 503.907043 785.157471 531.250854
/muse/acc 503.907043 804.688782 527.344604
/muse/drlref 1629032.250000 1641935.500000
/muse/acc 500.000793 777.344971 527.344604
/muse/acc 503.907043 785.157471 519.532043
/muse/eeg 832.360046 899.804260 871.839600 817.555237
/muse/eeg/quantization 1 1 1 1
/muse/eeg 845.519897 954.088623 899.804260 820.845215
/muse/eeg 861.969727 937.638794 908.029175 850.454834
/muse/eeg 857.034729 939.283752 893.224304 840.584961
/muse/eeg 840.584961 916.254028 947.508667 829.070068
/muse/eeg 832.360046 959.023560 937.638794 837.294983
/muse/eeg 835.650024 973.828369 894.869324 838.940002
/muse/eeg 853.744812 996.858093 888.289368 843.874939
/muse/eeg 852.099792 963.958496 944.218689 848.809875
/muse/eeg 855.389771 935.993835 929.413879 832.360046
/muse/eeg 834.005005 1005.083008 935.993835 829.070068
/muse/eeg 810.975281 985.343201 975.473328 830.715088
/muse/eeg 843.874939 1013.307861 965.603455 847.164856
/muse/elements/alpha_relative 0.299834 0.077848 0.168542 0.167022
/muse/elements/beta_relative 0.310672 0.414504 0.370275 0.368872
/muse/elements/delta_relative 0.066247 0.146344 0.075321 0.130914
/muse/elements/gamma_relative 0.216107 0.306823 0.346900 0.227083
/muse/elements/theta_relative 0.107139 0.054481 0.038963 0.106110
/muse/elements/horseshoe 1.000000 1.000000 1.000000 1.000000
/muse/elements/is_good 1 1 1 1
/muse/elements/blink [0]
/muse/elements/jaw_clench [0]
/muse/elements/touching_forehead [1]
/muse/elements/experimental/concentration [0.8976512551307678]
/muse/elements/experimental/mellow [0.0]
/muse/elements/low_freqs_absolute 0.431828 0.569719 0.469380 0.416203
/muse/elements/alpha_absolute 0.669693 0.158147 0.638104 0.264183
/muse/elements/beta_absolute 0.685114 0.884430 0.979921 0.608286
/muse/elements/delta_absolute 0.013982 0.432277 0.288310 0.158396
/muse/elements/gamma_absolute 0.527481 0.753788 0.951600 0.397595
/muse/elements/theta_absolute 0.222761 0.003144 0.002048 0.067167
/muse/eeg 848.809875 1013.307861 959.023560 838.940002
/muse/eeg 848.809875 993.568115 931.058899 837.294983
/muse/eeg 853.744812 916.254028 960.668518 838.940002
/muse/acc 496.094513 765.626221 511.719543
/muse/acc 468.750732 769.532471 507.813293
/muse/acc 492.188263 792.969971 515.625793
/muse/eeg 840.584961 934.348816 973.828369 834.005005
/muse/eeg/quantization 1 1 1 1
/muse/eeg 832.360046 1028.112671 947.508667 814.265259
/muse/eeg 815.910278 1056.077393 967.248413 784.655640
/muse/eeg 807.685364 1059.367310 927.768921 794.525513
/muse/eeg 799.460449 993.568115 945.863708 801.105408
/muse/eeg 792.880554 972.183411 952.443604 781.365662
/muse/eeg 786.300598 973.828369 935.993835 751.756042
/muse/eeg 759.980896 1037.982544 942.573730 732.016235
/muse/eeg 743.531128 1042.917480 963.958496 723.791321
/muse/eeg 713.921448 977.118347 962.313477 708.986511
/muse/eeg 704.051575 1016.597839 931.058899 679.376892
/muse/eeg 695.826660 1005.083008 917.899048 684.311829
/muse/eeg 695.826660 1014.952881 924.478943 684.311829
/muse/eeg 690.891724 1034.692627 904.739197 681.021851
/muse/eeg 694.181702 991.923157 852.099792 689.246765
/muse/eeg 689.246765 988.633179 866.904663 679.376892
/muse/acc 531.250854 800.782532 531.250854
/muse/eeg 690.891724 986.988220 866.904663 679.376892
/muse/drlref 1629032.250000 1641935.500000
/muse/acc 503.907043 808.595032 500.000793
/muse/acc 441.406952 804.688782 457.031952
/muse/acc 429.688171 769.532471 433.594421
/muse/eeg 685.956787 1046.207520 850.454834 669.507019
/muse/eeg/quantization 1 4 2 1
/muse/eeg 687.601807 1006.727966 880.064453 667.862000
/muse/elements/alpha_relative 0.287088 0.066047 0.175990 0.159798
/muse/elements/beta_relative 0.323609 0.340792 0.346661 0.380243
/muse/elements/delta_relative 0.063322 0.290499 0.097299 0.122852
/muse/elements/gamma_relative 0.219079 0.248762 0.335174 0.240946
/muse/elements/theta_relative 0.106902 0.053900 0.044875 0.096162
/muse/elements/horseshoe 1.000000 1.000000 1.000000 1.000000
/muse/elements/is_good 1 1 1 1
/muse/elements/blink [0]
/muse/elements/jaw_clench [0]
/muse/elements/touching_forehead [1]
/muse/elements/experimental/concentration [0.8862723708152771]
/muse/elements/experimental/mellow [0.0]
/muse/elements/low_freqs_absolute 0.413008 0.889461 0.574784 0.368699
/muse/elements/alpha_absolute 0.640003 0.172249 0.667450 0.231800
/muse/elements/beta_absolute 0.692008 0.884888 0.961868 0.608289
/muse/elements/delta_absolute -0.016461 0.815544 0.410073 0.117609
/muse/elements/gamma_absolute 0.522588 0.748183 0.947233 0.410148
/muse/elements/theta_absolute 0.210975 0.083987 0.073967 0.011230
/muse/eeg 705.696594 1006.727966 952.443604 676.086914
/muse/eeg 707.341553 980.408264 889.934387 692.536743
/muse/eeg 722.146362 973.828369 866.904663 720.501404
/muse/eeg 756.690979 1026.467773 820.845215 756.690979
/muse/eeg 732.016235 993.568115 886.644409 732.016235
/muse/eeg 707.341553 1079.107056 916.254028 682.666870
/muse/eeg 708.986511 1065.947266 889.934387 707.341553
/muse/eeg 758.335938 1019.887817 876.774536 740.241150
/muse/eeg 783.010620 1013.307861 860.324707 763.270874
/muse/eeg 759.980896 1046.207520 857.034729 751.756042
/muse/eeg 761.625916 1105.426758 906.384155 723.791321
/muse/eeg 776.430725 1118.586670 866.904663 748.466064
/muse/eeg 819.200195 1125.166504 840.584961 794.525513
/muse/eeg 776.430725 1085.687012 857.034729 748.466064
/muse/acc 437.500671 750.001160 429.688171
/muse/acc 468.750732 765.626221 429.688171
/muse/drlref 1629032.250000 1641935.500000
/muse/acc 472.656982 785.157471 410.156891
/muse/acc 503.907043 792.969971 398.438110
/muse/eeg 761.625916 1072.527222 903.094238 715.566467
/muse/eeg/quantization 1 4 4 1
/muse/eeg 751.756042 1131.746460 830.715088 722.146362
/muse/eeg 806.040344 1177.805908 870.194580 764.915833
/muse/eeg 827.425110 1131.746460 903.094238 812.620300
/muse/eeg 764.915833 1217.285400 863.614685 751.756042
/muse/eeg 796.170471 1263.344849 843.874939 759.980896
/muse/eeg 817.555237 1230.445312 843.874939 781.365662
/muse/eeg 838.940002 1302.824463 830.715088 801.105408
/muse/elements/alpha_relative 0.281757 0.064374 0.176683 0.149887
/muse/elements/beta_relative 0.334038 0.333874 0.340248 0.386834
/muse/elements/delta_relative 0.063511 0.305475 0.100529 0.122503
/muse/elements/gamma_relative 0.214293 0.240987 0.335941 0.250971
/muse/elements/theta_relative 0.106400 0.055290 0.046600 0.089805
/muse/elements/horseshoe 1.000000 1.000000 1.000000 1.000000
/muse/elements/is_good 1 1 1 1
/muse/elements/blink [0]
/muse/elements/jaw_clench [0]
/muse/elements/touching_forehead [1]
/muse/elements/experimental/concentration [0.874891459941864]
/muse/elements/experimental/mellow [0.0]
/muse/elements/low_freqs_absolute 0.414794 0.912585 0.587953 0.345603
/muse/elements/alpha_absolute 0.634447 0.164070 0.667450 0.194402
/muse/elements/beta_absolute 0.708367 0.878943 0.952052 0.606162
/muse/elements/delta_absolute -0.012576 0.840336 0.422546 0.106783
/muse/elements/gamma_absolute 0.515581 0.737354 0.946518 0.418261
/muse/elements/theta_absolute 0.211513 0.098006 0.088640 -0.028062
/muse/eeg 861.969727 1243.605103 863.614685 824.135132
/muse/eeg 837.294983 1243.605103 942.573730 807.685364
/muse/eeg 837.294983 1283.084717 909.674133 791.235535
/muse/eeg 860.324707 1283.084717 903.094238 829.070068
/muse/eeg 883.354431 1289.664551 889.934387 858.679749
/muse/eeg 883.354431 1263.344849 889.934387 863.614685
/muse/eeg 914.609070 1250.185059 857.034729 891.579346
/muse/eeg 912.964111 1283.084717 889.934387 857.034729
/muse/acc 519.532043 777.344971 382.813110
/muse/acc 496.094513 765.626221 367.188080
/muse/acc 488.282013 781.251221 351.563049
/muse/eeg 878.419495 1284.729614 899.804260 815.910278
/muse/eeg/quantization 1 1 1 1
/muse/eeg 863.614685 1215.640503 912.964111 822.490173
/muse/eeg 866.904663 1227.155396 909.674133 835.650024
/muse/eeg 908.029175 1228.800293 876.774536 878.419495
/muse/eeg 899.804260 1289.664551 848.809875 880.064453
/muse/eeg 901.449219 1283.084717 866.904663 875.129517
/muse/eeg 912.964111 1243.605103 883.354431 888.289368
/muse/eeg 904.739197 1273.214844 901.449219 860.324707
/muse/eeg 917.899048 1278.149780 875.129517 852.099792
/muse/eeg 901.449219 1233.735229 884.999451 870.194580
/muse/eeg 876.774536 1304.469360 903.094238 852.099792
/muse/eeg 860.324707 1296.244507 894.869324 834.005005
/muse/eeg 870.194580 1319.274292 914.609070 838.940002
/muse/eeg 904.739197 1317.629272 858.679749 870.194580
/muse/elements/alpha_relative 0.276018 0.062564 0.176439 0.141265
/muse/elements/beta_relative 0.344858 0.326826 0.335138 0.388174
/muse/elements/delta_relative 0.067793 0.320868 0.104894 0.127905
/muse/elements/gamma_relative 0.206695 0.233721 0.334851 0.256525
/muse/elements/theta_relative 0.104636 0.056021 0.048678 0.086130
/muse/elements/horseshoe 1.000000 1.000000 1.000000 1.000000
/muse/elements/is_good 1 1 1 1
/muse/elements/blink [0]
/muse/elements/jaw_clench [0]
/muse/elements/touching_forehead [1]
/muse/elements/experimental/concentration [0.8634853363037109]
/muse/elements/experimental/mellow [0.0]
/muse/elements/low_freqs_absolute 0.430120 0.939633 0.607165 0.342149
/muse/elements/alpha_absolute 0.634447 0.159744 0.667450 0.161698
/muse/elements/beta_absolute 0.731149 0.877737 0.946079 0.600690
/muse/elements/delta_absolute 0.024693 0.869747 0.441604 0.118552
/muse/elements/gamma_absolute 0.508839 0.732118 0.945707 0.420794
/muse/elements/theta_absolute 0.213192 0.111768 0.108186 -0.053180
/muse/eeg 980.408264 1248.540039 852.099792 952.443604
/muse/eeg 940.928772 1245.250122 894.869324 917.899048
/muse/drlref 1629032.250000 1641935.500000
/muse/acc 503.907043 804.688782 343.750549
/muse/acc 503.907043 785.157471 324.219269
/muse/acc 496.094513 773.438721 316.406738
/muse/acc 460.938232 777.344971 308.594238
/muse/eeg 855.389771 1324.209229 908.029175 835.650024
/muse/eeg/quantization 4 8 2 1
/muse/eeg 875.129517 1363.688721 937.638794 850.454834
/muse/eeg 875.129517 1258.409912 901.449219 860.324707
/muse/eeg 908.029175 1205.770630 875.129517 903.094238
/muse/eeg 940.928772 1245.250122 924.478943 899.804260
/muse/eeg 947.508667 1245.250122 927.768921 899.804260
/muse/eeg 901.449219 1376.848511 861.969727 861.969727
/muse/eeg 914.609070 1284.729614 891.579346 860.324707
/muse/eeg 954.088623 1271.569824 917.899048 903.094238
/muse/eeg 940.928772 1271.569824 927.768921 908.029175
/muse/eeg 908.029175 1311.049316 934.348816 894.869324
/muse/eeg 875.129517 1324.209229 871.839600 871.839600
/muse/eeg 848.809875 1337.369019 842.229919 866.904663
/muse/eeg 888.289368 1363.688721 884.999451 865.259644
/muse/eeg 940.928772 1390.008423 894.869324 924.478943
/muse/eeg 927.768921 1468.967407 891.579346 903.094238
/muse/acc 441.406952 789.063721 296.875458
/muse/acc 437.500671 808.595032 296.875458
/muse/drlref 1629032.250000 1641935.500000
/muse/acc 449.219452 828.126282 292.969208
/muse/eeg 931.058899 1533.121704 860.324707 858.679749
/muse/eeg/quantization 1 1 1 1
/muse/eeg 1014.952881 1529.831665 865.259644 903.094238
/muse/eeg 1019.887817 1564.376343 909.674133 901.449219
/muse/eeg 998.503052 1557.796387 857.034729 878.419495
/muse/elements/alpha_relative 0.268396 0.060601 0.174892 0.136865
/muse/elements/beta_relative 0.355387 0.320671 0.332031 0.384426
/muse/elements/delta_relative 0.075022 0.335609 0.110667 0.137299
/muse/elements/gamma_relative 0.200051 0.227347 0.331684 0.258026
/muse/elements/theta_relative 0.101143 0.055773 0.050725 0.083384
/muse/elements/horseshoe 1.000000 1.000000 1.000000 1.000000
/muse/elements/is_good 1 1 1 1
/muse/elements/blink [1]
/muse/elements/jaw_clench [0]
/muse/elements/touching_forehead [1]
/muse/elements/experimental/concentration [0.851974606513977]
/muse/elements/experimental/mellow [0.0]
/muse/elements/low_freqs_absolute 0.451591 0.969866 0.632563 0.352694
/muse/elements/alpha_absolute 0.634447 0.159744 0.667450 0.145217
/muse/elements/beta_absolute 0.756372 0.883324 0.945859 0.593738
/muse/elements/delta_absolute 0.080861 0.903099 0.468700 0.146591
/muse/elements/gamma_absolute 0.506811 0.733953 0.945405 0.420589
/muse/elements/theta_absolute 0.210608 0.123689 0.129902 -0.069990
/muse/eeg 944.218689 1575.891113 883.354431 868.549622
/muse/eeg 878.419495 1572.601196 901.449219 871.839600
/muse/eeg 896.514282 1562.731323 886.644409 866.904663
/muse/eeg 880.064453 1559.441406 893.224304 884.999451
/muse/eeg 891.579346 1546.281494 852.099792 917.899048
/muse/eeg 932.703857 1524.896729 898.159241 908.029175
/muse/eeg 876.774536 1561.086304 903.094238 884.999451
/muse/eeg 884.999451 1554.506470 881.709473 870.194580
/muse/eeg 901.449219 1572.601196 901.449219 873.484558
/muse/eeg 899.804260 1536.411621 884.999451 875.129517
/muse/eeg 926.123962 1501.867065 886.644409 901.449219
/muse/eeg 935.993835 1531.476685 884.999451 891.579346
/muse/acc 472.656982 832.032532 300.781708
/muse/acc 468.750732 816.407532 296.875458
/muse/acc 457.031952 796.876221 281.250427
/muse/acc 429.688171 777.344971 257.812897
/muse/eeg 922.833984 1426.197998 875.129517 870.194580
/muse/eeg/quantization 1 8 1 1
/muse/eeg 914.609070 1452.517700 899.804260 860.324707
/muse/eeg 937.638794 1399.878296 889.934387 857.034729
/muse/eeg 909.674133 1320.919189 889.934387 855.389771
/muse/eeg 911.319092 1320.919189 855.389771 871.839600
/muse/eeg 901.449219 1347.238892 886.644409 871.839600
/muse/eeg 878.419495 1334.079102 876.774536 850.454834
/muse/eeg 898.159241 1334.079102 883.354431 835.650024
/muse/eeg 871.839600 1334.079102 893.224304 810.975281
/muse/eeg 893.224304 1255.119995 863.614685 832.360046
/muse/elements/alpha_relative 0.259611 0.057436 0.172334 0.120602
/muse/elements/beta_relative 0.361372 0.316389 0.330369 0.382911
/muse/elements/delta_relative 0.085335 0.350269 0.118030 0.152780
/muse/elements/gamma_relative 0.196946 0.221072 0.326568 0.259816
/muse/elements/theta_relative 0.096736 0.054835 0.052699 0.083891
/muse/elements/horseshoe 1.000000 1.000000 1.000000 1.000000
/muse/elements/is_good 1 1 1 1
/muse/elements/blink [0]
/muse/elements/jaw_clench [0]
/muse/elements/touching_forehead [1]
/muse/elements/experimental/concentration [0.8405985832214355]
/muse/elements/experimental/mellow [0.0]
/muse/elements/low_freqs_absolute 0.480365 1.003346 0.663389 0.381432
/muse/elements/alpha_absolute 0.634447 0.154964 0.667450 0.088642
/muse/elements/beta_absolute 0.778078 0.896001 0.950078 0.590385
/muse/elements/delta_absolute 0.151250 0.940181 0.503073 0.191353
/muse/elements/gamma_absolute 0.514471 0.740313 0.945054 0.421952
/muse/elements/theta_absolute 0.205714 0.134838 0.152884 -0.068998
/muse/eeg 909.674133 1320.919189 870.194580 860.324707
/muse/eeg 889.934387 1281.439697 843.874939 875.129517
/muse/eeg 860.324707 1334.079102 848.809875 848.809875
/muse/eeg 863.614685 1320.919189 909.674133 850.454834
/muse/eeg 878.419495 1281.439697 898.159241 837.294983
/muse/eeg 896.514282 1241.960205 903.094238 848.809875
/muse/drlref 1629032.250000 1641935.500000
/muse/acc 394.531860 765.626221 238.281616
/muse/acc 410.156891 746.094910 238.281616
/muse/acc 437.500671 734.376160 246.094131
/muse/acc 484.375763 750.001160 261.719147
/muse/eeg 883.354431 1307.759399 853.744812 842.229919
/muse/eeg/quantization 1 8 1 1
/muse/eeg 883.354431 1334.079102 840.584961 838.940002
/muse/eeg 876.774536 1281.439697 853.744812 834.005005
/muse/eeg 870.194580 1241.960205 861.969727 822.490173
/muse/eeg 893.224304 1215.640503 908.029175 835.650024
/muse/eeg 876.774536 1163.001099 894.869324 834.005005
/muse/eeg 886.644409 1176.160889 835.650024 843.874939
/muse/eeg 888.289368 1189.320801 827.425110 845.519897
/muse/eeg 875.129517 1176.160889 848.809875 835.650024
/muse/eeg 866.904663 1228.800293 901.449219 815.910278
/muse/eeg 870.194580 1149.841309 909.674133 812.620300
/muse/eeg 888.289368 1070.882202 908.029175 834.005005
/muse/eeg 883.354431 1005.083008 931.058899 865.259644
/muse/eeg 860.324707 1084.041992 926.123962 866.904663
/muse/eeg 852.099792 1123.521606 940.928772 866.904663
/muse/eeg 842.229919 1149.841309 838.940002 853.744812
/muse/elements/alpha_relative 0.250588 0.051781 0.169787 0.103898
/muse/elements/beta_relative 0.358284 0.313167 0.327865 0.379722
/muse/elements/delta_relative 0.100485 0.367015 0.127451 0.173728
/muse/elements/gamma_relative 0.198037 0.214181 0.319964 0.257264
/muse/elements/theta_relative 0.092606 0.053855 0.054933 0.085387
/muse/elements/horseshoe 1.000000 1.000000 1.000000 1.000000
/muse/elements/is_good 1 1 1 1
/muse/elements/blink [0]
/muse/elements/jaw_clench [1]
/muse/elements/touching_forehead [1]
/muse/elements/experimental/concentration [0.829491913318634]
/muse/elements/experimental/mellow [0.0]
/muse/elements/low_freqs_absolute 0.521250 1.040553 0.698532 0.429456
/muse/elements/alpha_absolute 0.634447 0.130571 0.667450 0.032568
/muse/elements/beta_absolute 0.789714 0.912181 0.953241 0.595429
/muse/elements/delta_absolute 0.237588 0.981089 0.542888 0.255833
/muse/elements/gamma_absolute 0.532233 0.747187 0.942646 0.426342
/muse/elements/theta_absolute 0.202128 0.147635 0.177380 -0.052645
/muse/acc 539.063354 777.344971 292.969208
/muse/acc 500.000793 757.813660 300.781708
/muse/drlref 1629032.250000 1641935.500000
/muse/acc 507.813293 792.969971 328.125519
/muse/eeg 834.005005 1041.272583 904.739197 825.780151
/muse/eeg/quantization 1 2 4 1
/muse/eeg 840.584961 1014.952881 983.698242 829.070068
/muse/eeg 830.715088 1001.793030 970.538391 822.490173
/muse/eeg 884.999451 965.603455 970.538391 865.259644
/muse/eeg 908.029175 1074.172119 931.058899 888.289368
/muse/eeg 855.389771 1014.952881 957.378540 830.715088
/muse/eeg 861.969727 962.313477 911.319092 843.874939
/muse/eeg 832.360046 1021.532776 1023.177795 824.135132
/muse/eeg 845.519897 916.254028 1010.017944 848.809875
/muse/eeg 857.034729 899.804260 1049.497437 820.845215
/muse/eeg 848.809875 968.893433 1016.597839 824.135132
/muse/eeg 834.005005 955.733582 1010.017944 829.070068
/muse/eeg 819.200195 965.603455 1016.597839 855.389771
/muse/eeg 827.425110 952.443604 950.798645 878.419495
/muse/eeg 812.620300 949.153687 983.698242 840.584961
/muse/eeg 832.360046 926.123962 904.739197 850.454834
/muse/acc 519.532043 804.688782 343.750549
/muse/eeg 842.229919 950.798645 1005.083008 847.164856
/muse/acc 554.688354 808.595032 375.000580
/muse/acc 550.782104 796.876221 378.906830
/muse/acc 531.250854 781.251221 386.719360
/muse/eeg 827.425110 871.839600 1176.160889 852.099792
/muse/eeg/quantization 1 16 8 1
/muse/eeg 817.555237 898.159241 1097.201904 835.650024
/muse/eeg 809.330322 977.118347 1057.722412 810.975281
/muse/eeg 829.070068 924.478943 991.923157 825.780151
/muse/eeg 843.874939 924.478943 991.923157 822.490173
/muse/elements/alpha_relative 0.250588 0.045419 0.168221 0.103898
/muse/elements/beta_relative 0.358284 0.308029 0.321168 0.379722
/muse/elements/delta_relative 0.100485 0.387222 0.139427 0.173728
/muse/elements/gamma_relative 0.198037 0.206028 0.313225 0.257264
/muse/elements/theta_relative 0.092606 0.053302 0.057958 0.085387
/muse/elements/horseshoe 1.000000 1.000000 1.000000 1.000000
/muse/elements/is_good 0 1 1 0
/muse/elements/blink [0]
/muse/elements/jaw_clench [1]
/muse/elements/touching_forehead [1]
/muse/elements/experimental/concentration [0.8183852434158325]
/muse/elements/experimental/mellow [0.0]
/muse/elements/low_freqs_absolute 0.521250 1.082251 0.736884 0.429456
/muse/elements/alpha_absolute 0.634447 0.095522 0.667450 0.032568
/muse/elements/beta_absolute 0.789714 0.926874 0.948302 0.595429
/muse/elements/delta_absolute 0.237588 1.026242 0.585917 0.255833
/muse/elements/gamma_absolute 0.532233 0.752209 0.937426 0.426342
/muse/elements/theta_absolute 0.202128 0.165023 0.204681 -0.052645
/muse/eeg 881.709473 845.519897 991.923157 845.519897
/muse/eeg 891.579346 766.560852 1031.402710 843.874939
/muse/eeg 843.874939 819.200195 1084.041992 809.330322
/muse/eeg 819.200195 898.159241 991.923157 799.460449
/muse/eeg 810.975281 898.159241 991.923157 830.715088
/muse/eeg 829.070068 871.839600 991.923157 840.584961
/muse/eeg 837.294983 845.519897 991.923157 850.454834
/muse/eeg 847.164856 898.159241 1031.402710 860.324707
/muse/eeg 817.555237 924.478943 1031.402710 852.099792
/muse/eeg 759.980896 924.478943 991.923157 822.490173
/muse/eeg 776.430725 898.159241 952.443604 814.265259
/muse/drlref 1629032.250000 1645161.250000
/muse/acc 500.000793 765.626221 378.906830
Unknown message         
	 Source: 'osc.udp://127.0.0.1:55693/'         
	 Address: '/muse/config'         
	 Types: 's '         
	 Payload: '['{"mac_addr":"000666A069D0","serial_number":"1160-UJMN-69D0","preset":"14","filters_enabled":true,"notch_frequency_hz":60,"battery_data_enabled":true,"compression_enabled":true,"eeg_sample_frequency_hz":3520,"eeg_output_frequency_hz":220,"eeg_channel_count":4,"eeg_samples_bitwidth":10,"eeg_channel_layout":"TP9 FP1 FP2 TP10 ","eeg_downsample":16,"afe_gain":1961,"battery_percent_remaining":36,"battery_millivolts":3724,"eeg_units":"EEG_MICROVOLTS","acc_units":"ACC_GFORCE","eeg_conversion_factor":1.644980342484907,"drlref_conversion_factor":3225.806451612903,"acc_conversion_factor":3.906256109482,"acc_sample_frequency_hz":50,"drlref_sample_frequency_hz":10,"acc_data_enabled":true,"drlref_data_enabled":true,"error_data_enabled":true}\n']'
Unknown message         
	 Source: 'osc.udp://127.0.0.1:55693/'         
	 Address: '/muse/version'         
	 Types: 's '         
	 Payload: '['{"hardware_version":"16.0.0","firmware_headset_version":"7.2.7","firmware_bootloader_version":"7.2.7","firmware_type":"Research","build_number":41,"protocol_version":2}\n']'
/muse/acc 515.625793 761.719971 386.719360
/muse/acc 542.969604 742.188660 414.063141
/muse/acc 578.125916 746.094910 437.500671
/muse/eeg 792.880554 858.679749 1037.982544 827.425110
/muse/eeg/quantization 1 4 1 1
/muse/eeg 820.845215 924.478943 986.988220 853.744812
/muse/eeg 830.715088 911.319092 931.058899 868.549622
/muse/eeg 786.300598 871.839600 1049.497437 824.135132
/muse/eeg 806.040344 871.839600 996.858093 835.650024
/muse/eeg 796.170471 898.159241 993.568115 812.620300
/muse/eeg 824.135132 891.579346 982.053284 845.519897
/muse/eeg 837.294983 838.940002 985.343201 812.620300
/muse/eeg 827.425110 838.940002 980.408264 830.715088
/muse/eeg 822.490173 845.519897 970.538391 832.360046
/muse/eeg 807.685364 884.999451 967.248413 807.685364
/muse/elements/alpha_relative 0.250588 0.042910 0.167886 0.103898
/muse/elements/beta_relative 0.358284 0.297310 0.307979 0.379722
/muse/elements/delta_relative 0.100485 0.410667 0.154630 0.173728
/muse/elements/gamma_relative 0.198037 0.195843 0.307426 0.257264
/muse/elements/theta_relative 0.092606 0.053270 0.062078 0.085387
/muse/elements/horseshoe 1.000000 1.000000 1.000000 1.000000
/muse/elements/is_good 0 1 1 0
/muse/elements/blink [0]
/muse/elements/jaw_clench [1]
/muse/elements/touching_forehead [1]
/muse/elements/experimental/concentration [0.807278573513031]
/muse/elements/experimental/mellow [0.0]
/muse/elements/low_freqs_absolute 0.521250 1.129422 0.778310 0.429456
/muse/elements/alpha_absolute 0.634447 0.095522 0.667450 0.032568
/muse/elements/beta_absolute 0.789714 0.936172 0.930956 0.595429
/muse/elements/delta_absolute 0.237588 1.076453 0.631730 0.255833
/muse/elements/gamma_absolute 0.532233 0.754870 0.930176 0.426342
/muse/elements/theta_absolute 0.202128 0.189447 0.235372 -0.052645
/muse/eeg 820.845215 845.519897 945.863708 838.940002
/muse/eeg 827.425110 812.620300 935.993835 829.070068
/muse/eeg 832.360046 779.720703 939.283752 861.969727
/muse/eeg 847.164856 845.519897 937.638794 847.164856
/muse/eeg 832.360046 825.780151 954.088623 820.845215
/muse/acc 632.813477 792.969971 457.031952
/muse/acc 640.625977 800.782532 460.938232
/muse/drlref 1629032.250000 1641935.500000
/muse/acc 621.094727 804.688782 449.219452
/muse/eeg 810.975281 806.040344 945.863708 809.330322
/muse/eeg/quantization 1 2 1 1
/muse/eeg 809.330322 740.241150 937.638794 809.330322
/muse/eeg 812.620300 743.531128 955.733582 835.650024
/muse/eeg 834.005005 786.300598 949.153687 832.360046
/muse/eeg 827.425110 746.821106 939.283752 817.555237
/muse/eeg 825.780151 763.270874 911.319092 824.135132
/muse/eeg 847.164856 720.501404 893.224304 855.389771
/muse/eeg 838.940002 763.270874 955.733582 852.099792
/muse/eeg 838.940002 766.560852 959.023560 834.005005
/muse/eeg 837.294983 740.241150 963.958496 827.425110
/muse/eeg 838.940002 694.181702 973.828369 842.229919
/muse/eeg 847.164856 694.181702 952.443604 842.229919
/muse/eeg 827.425110 763.270874 932.703857 850.454834
/muse/eeg 804.395386 763.270874 944.218689 837.294983
/muse/eeg 810.975281 704.051575 977.118347 827.425110
/muse/eeg 815.910278 710.631531 977.118347 830.715088
/muse/acc 609.375977 800.782532 441.406952
/muse/acc 589.844666 792.969971 429.688171
/muse/acc 554.688354 785.157471 421.875671
/muse/acc 527.344604 777.344971 410.156891
/muse/eeg 807.685364 708.986511 965.603455 815.910278
/muse/elements/alpha_relative 0.250588 0.040361 0.167982 0.103898
/muse/elements/beta_relative 0.358284 0.281001 0.288647 0.379722
/muse/elements/delta_relative 0.100485 0.439992 0.173714 0.173728
/muse/elements/gamma_relative 0.198037 0.184557 0.302313 0.257264
/muse/elements/theta_relative 0.092606 0.054089 0.067344 0.085387
/muse/elements/horseshoe 1.000000 1.000000 1.000000 1.000000
/muse/elements/is_good 0 1 1 0
/muse/elements/blink [0]
/muse/elements/jaw_clench [1]
/muse/elements/touching_forehead [1]
/muse/elements/experimental/concentration [0.7961718440055847]
/muse/elements/experimental/mellow [0.0]
/muse/elements/low_freqs_absolute 0.521250 1.183353 0.824309 0.429456
/muse/elements/alpha_absolute 0.634447 0.095522 0.667450 0.032568
/muse/elements/beta_absolute 0.789714 0.938263 0.902554 0.595429
/muse/elements/delta_absolute 0.237588 1.133000 0.682023 0.255833
/muse/elements/gamma_absolute 0.532233 0.755685 0.922644 0.426342
/muse/elements/theta_absolute 0.202128 0.222662 0.270485 -0.052645
/muse/eeg/quantization 1 1 1 1
/muse/eeg 807.685364 736.951172 975.473328 827.425110
/muse/eeg 830.715088 712.276489 931.058899 837.294983
/muse/eeg 845.519897 661.282104 912.964111 845.519897
/muse/eeg 845.519897 674.441956 955.733582 852.099792
/muse/eeg 857.034729 725.436340 960.668518 853.744812
/muse/eeg 843.874939 736.951172 939.283752 853.744812
/muse/eeg 842.229919 674.441956 947.508667 845.519897
/muse/eeg 858.679749 679.376892 868.549622 832.360046
/muse/eeg 847.164856 690.891724 875.129517 848.809875
/muse/eeg 832.360046 718.856384 929.413879 830.715088
/muse/eeg 815.910278 700.761597 942.573730 815.910278
/muse/eeg 834.005005 692.536743 935.993835 829.070068
/muse/eeg 845.519897 768.205811 914.609070 815.910278
/muse/eeg 860.324707 727.081299 921.188965 825.780151
/muse/eeg 865.259644 736.951172 894.869324 835.650024
/muse/drlref 1629032.250000 1641935.500000
/muse/acc 507.813293 785.157471 390.625610
/muse/acc 503.907043 789.063721 375.000580
/muse/acc 476.563232 765.626221 359.375549
/muse/eeg 845.519897 677.731873 914.609070 850.454834
/muse/eeg/quantization 1 2 1 1
/muse/eeg 832.360046 664.572083 898.159241 861.969727
/muse/eeg 834.005005 733.661255 911.319092 858.679749
/muse/eeg 814.265259 700.761597 893.224304 852.099792
/muse/eeg 840.584961 700.761597 889.934387 845.519897
/muse/eeg 837.294983 684.311829 931.058899 827.425110
/muse/eeg 842.229919 697.471680 912.964111 834.005005
/muse/elements/alpha_relative 0.250588 0.037583 0.167135 0.103898
/muse/elements/beta_relative 0.358284 0.259147 0.266376 0.379722
/muse/elements/delta_relative 0.100485 0.475538 0.197944 0.173728
/muse/elements/gamma_relative 0.198037 0.172054 0.295025 0.257264
/muse/elements/theta_relative 0.092606 0.055678 0.073520 0.085387
/muse/elements/horseshoe 1.000000 4.000000 1.000000 1.000000
/muse/elements/is_good 0 1 1 0
/muse/elements/blink [0]
/muse/elements/jaw_clench [1]
/muse/elements/touching_forehead [1]
/muse/elements/experimental/concentration [0.7850651741027832]
/muse/elements/experimental/mellow [0.0]
/muse/elements/low_freqs_absolute 0.521250 1.245802 0.878095 0.429456
/muse/elements/alpha_absolute 0.634447 0.095522 0.667450 0.032568
/muse/elements/beta_absolute 0.789714 0.934076 0.869879 0.595429
/muse/elements/delta_absolute 0.237588 1.197716 0.740925 0.255833
/muse/elements/gamma_absolute 0.532233 0.756195 0.914242 0.426342
/muse/elements/theta_absolute 0.202128 0.266214 0.310787 -0.052645
/muse/eeg 852.099792 746.821106 912.964111 830.715088
/muse/eeg 875.129517 677.731873 883.354431 853.744812
/muse/eeg 863.614685 608.642700 843.874939 855.389771
/muse/eeg 865.259644 648.122253 870.194580 860.324707
/muse/eeg 850.454834 753.401001 914.609070 850.454834
/muse/eeg 827.425110 740.241150 889.934387 809.330322
/muse/eeg 807.685364 730.371277 906.384155 797.815491
/muse/eeg 822.490173 700.761597 876.774536 829.070068
/muse/eeg 830.715088 723.791321 875.129517 809.330322
/muse/acc 457.031952 765.626221 355.469299
/muse/acc 449.219452 781.251221 351.563049
/muse/acc 457.031952 816.407532 332.031769
/muse/drlref 1629032.250000 1641935.500000
/muse/acc 449.219452 824.220032 304.687988
/muse/eeg 817.555237 690.891724 855.389771 822.490173
/muse/eeg/quantization 1 4 1 1
/muse/eeg 838.940002 730.371277 870.194580 832.360046
/muse/eeg 827.425110 677.731873 860.324707 804.395386
/muse/eeg 847.164856 730.371277 886.644409 835.650024
/muse/eeg 858.679749 763.270874 901.449219 827.425110
/muse/eeg 827.425110 743.531128 906.384155 794.525513
/muse/eeg 832.360046 723.791321 860.324707 817.555237
/muse/eeg 829.070068 743.531128 891.579346 801.105408
/muse/eeg 827.425110 802.750427 899.804260 794.525513
/muse/eeg 824.135132 736.951172 889.934387 807.685364
/muse/eeg 832.360046 743.531128 891.579346 814.265259
/muse/eeg 881.709473 704.051575 840.584961 840.584961
/muse/eeg 876.774536 730.371277 806.040344 822.490173
/muse/elements/alpha_relative 0.250588 0.034310 0.164268 0.103898
/muse/elements/beta_relative 0.358284 0.233028 0.244508 0.379722
/muse/elements/delta_relative 0.100485 0.516872 0.228549 0.173728
/muse/elements/gamma_relative 0.198037 0.158133 0.282611 0.257264
/muse/elements/theta_relative 0.092606 0.057657 0.080064 0.085387
/muse/elements/horseshoe 1.000000 4.000000 1.000000 1.000000
/muse/elements/is_good 0 1 1 0
/muse/elements/blink [0]
/muse/elements/jaw_clench [1]
/muse/elements/touching_forehead [1]
/muse/elements/experimental/concentration [0.7739585041999817]
/muse/elements/experimental/mellow [0.0]
/muse/elements/low_freqs_absolute 0.521250 1.319410 0.941311 0.429456
/muse/elements/alpha_absolute 0.634447 0.095522 0.667450 0.032568
/muse/elements/beta_absolute 0.789714 0.927506 0.840189 0.595429
/muse/elements/delta_absolute 0.237588 1.273481 0.810876 0.255833
/muse/elements/gamma_absolute 0.532233 0.759122 0.903085 0.426342
/muse/elements/theta_absolute 0.202128 0.320951 0.355333 -0.052645
/muse/eeg 870.194580 776.430725 878.419495 814.265259
/muse/eeg 891.579346 730.371277 898.159241 825.780151
/muse/eeg 878.419495 730.371277 912.964111 827.425110
/muse/acc 445.313202 804.688782 289.062958
/muse/acc 449.219452 804.688782 285.156708
/muse/acc 457.031952 824.220032 292.969208
/muse/acc 445.313202 851.563843 281.250427
/muse/eeg 868.549622 835.650024 908.029175 820.845215
/muse/eeg/quantization 1 8 1 1
/muse/eeg 845.519897 769.850830 858.679749 840.584961
/muse/eeg 804.395386 730.371277 876.774536 830.715088
/muse/eeg 791.235535 743.531128 898.159241 797.815491
/muse/eeg 812.620300 743.531128 891.579346 812.620300
/muse/eeg 835.650024 809.330322 914.609070 794.525513
/muse/eeg 852.099792 809.330322 880.064453 817.555237
/muse/eeg 834.005005 717.211426 868.549622 822.490173
/muse/eeg 830.715088 704.051575 840.584961 837.294983
/muse/eeg 840.584961 756.690979 840.584961 819.200195
/muse/eeg 857.034729 756.690979 911.319092 819.200195
/muse/eeg 863.614685 690.891724 876.774536 845.519897
/muse/eeg 855.389771 717.211426 843.874939 843.874939
/muse/eeg 847.164856 704.051575 911.319092 829.070068
/muse/eeg 847.164856 756.690979 855.389771 812.620300
/muse/eeg 842.229919 717.211426 845.519897 810.975281
/muse/drlref 1629032.250000 1645161.250000
/muse/acc 437.500671 863.282593 261.719147
/muse/acc 437.500671 855.470093 250.000397
/muse/acc 414.063141 835.938782 230.469116
/muse/eeg 853.744812 743.531128 875.129517 832.360046
/muse/eeg/quantization 1 4 1 1
/muse/eeg 868.549622 684.311829 886.644409 855.389771
/muse/eeg 860.324707 690.891724 883.354431 852.099792
/muse/elements/alpha_relative 0.250588 0.029672 0.159351 0.103898
/muse/elements/beta_relative 0.358284 0.204874 0.225853 0.379722
/muse/elements/delta_relative 0.100485 0.563323 0.263755 0.173728
/muse/elements/gamma_relative 0.198037 0.142755 0.264870 0.257264
/muse/elements/theta_relative 0.092606 0.059375 0.086171 0.085387
/muse/elements/horseshoe 1.000000 4.000000 1.000000 1.000000
/muse/elements/is_good 0 1 1 0
/muse/elements/blink [0]
/muse/elements/jaw_clench [0]
/muse/elements/touching_forehead [1]
/muse/elements/experimental/concentration [0.7628518342971802]
/muse/elements/experimental/mellow [0.0]
/muse/elements/low_freqs_absolute 0.521250 1.407072 1.009072 0.429456
/muse/elements/alpha_absolute 0.634447 0.085137 0.667450 0.032568
/muse/elements/beta_absolute 0.789714 0.924282 0.818922 0.595429
/muse/elements/delta_absolute 0.237588 1.363552 0.886296 0.255833
/muse/elements/gamma_absolute 0.532233 0.767386 0.888129 0.426342
/muse/elements/theta_absolute 0.202128 0.386398 0.400458 -0.052645
/muse/eeg 850.454834 756.690979 929.413879 824.135132
/muse/eeg 855.389771 710.631531 853.744812 848.809875
/muse/eeg 843.874939 730.371277 837.294983 838.940002
/muse/eeg 835.650024 704.051575 901.449219 827.425110
/muse/eeg 842.229919 769.850830 919.544006 822.490173
/muse/eeg 838.940002 736.951172 889.934387 824.135132
/muse/eeg 842.229919 671.151978 881.709473 830.715088
/muse/eeg 853.744812 677.731873 894.869324 847.164856
/muse/eeg 847.164856 710.631531 883.354431 834.005005
/muse/eeg 837.294983 763.270874 901.449219 824.135132
/muse/eeg 847.164856 776.430725 884.999451 827.425110
/muse/eeg 852.099792 697.471680 873.484558 838.940002
/muse/eeg 858.679749 704.051575 881.709473 843.874939
/muse/acc 406.250641 828.126282 218.750336
/muse/eeg 861.969727 776.430725 876.774536 837.294983
/muse/acc 421.875671 835.938782 207.031570
/muse/drlref 1629032.250000 1645161.250000
/muse/acc 449.219452 839.845093 203.125320
/muse/acc 460.938232 843.751343 199.219055
/muse/eeg 848.809875 750.111023 904.739197 834.005005
/muse/eeg/quantization 1 8 1 1
/muse/eeg 842.229919 802.750427 889.934387 829.070068
/muse/eeg 858.679749 736.951172 878.419495 842.229919
/muse/eeg 857.034729 776.430725 866.904663 840.584961
/muse/eeg 858.679749 829.070068 834.005005 847.164856
/muse/eeg 863.614685 815.910278 860.324707 840.584961
/muse/eeg 838.940002 763.270874 881.709473 830.715088
/muse/eeg 829.070068 815.910278 893.224304 810.975281
/muse/elements/alpha_relative 0.250588 0.029672 0.159351 0.103898
/muse/elements/beta_relative 0.358284 0.204874 0.225853 0.379722
/muse/elements/delta_relative 0.100485 0.563323 0.263755 0.173728
/muse/elements/gamma_relative 0.198037 0.142755 0.264870 0.257264
/muse/elements/theta_relative 0.092606 0.059375 0.086171 0.085387
/muse/elements/horseshoe 1.000000 4.000000 1.000000 1.000000
/muse/elements/is_good 0 0 0 0
/muse/elements/blink [0]
/muse/elements/jaw_clench [0]
/muse/elements/touching_forehead [1]
/muse/elements/experimental/concentration [0.7517451643943787]
/muse/elements/experimental/mellow [0.0]
/muse/elements/low_freqs_absolute 0.521250 1.407072 1.009072 0.429456
/muse/elements/alpha_absolute 0.634447 0.085137 0.667450 0.032568
/muse/elements/beta_absolute 0.789714 0.924282 0.818922 0.595429
/muse/elements/delta_absolute 0.237588 1.363552 0.886296 0.255833
/muse/elements/gamma_absolute 0.532233 0.767386 0.888129 0.426342
/muse/elements/theta_absolute 0.202128 0.386398 0.400458 -0.052645
/muse/eeg 827.425110 802.750427 876.774536 812.620300
/muse/eeg 835.650024 789.590576 865.259644 820.845215
/muse/eeg 843.874939 789.590576 857.034729 817.555237
/muse/eeg 853.744812 671.151978 852.099792 825.780151
/muse/eeg 866.904663 736.951172 842.229919 834.005005
/muse/eeg 858.679749 776.430725 806.040344 832.360046
/muse/eeg 832.360046 802.750427 838.940002 817.555237
/muse/eeg 822.490173 789.590576 866.904663 810.975281
/muse/acc 476.563232 859.376343 195.312805
/muse/acc 480.469513 855.470093 199.219055
/muse/acc 484.375763 855.470093 210.937836
/muse/acc 457.031952 859.376343 207.031570
/muse/eeg 822.490173 717.211426 858.679749 822.490173
/muse/eeg/quantization 1 1 1 1
/muse/eeg 829.070068 810.975281 868.549622 825.780151
/muse/eeg 834.005005 806.040344 875.129517 825.780151
/muse/eeg 838.940002 761.625916 868.549622 830.715088
/muse/eeg 830.715088 796.170471 865.259644 820.845215
/muse/eeg 842.229919 773.140747 824.135132 830.715088
/muse/eeg 829.070068 812.620300 809.330322 799.460449
/muse/eeg 827.425110 802.750427 861.969727 809.330322
/muse/eeg 817.555237 781.365662 835.650024 810.975281
/muse/eeg 812.620300 778.075684 843.874939 802.750427
/muse/eeg 825.780151 768.205811 847.164856 804.395386
/muse/eeg 824.135132 764.915833 825.780151 817.555237
/muse/eeg 825.780151 759.980896 863.614685 815.910278
/muse/eeg 837.294983 736.951172 858.679749 829.070068
/muse/elements/alpha_relative 0.250588 0.029672 0.159351 0.103898
/muse/elements/beta_relative 0.358284 0.204874 0.225853 0.379722
/muse/elements/delta_relative 0.100485 0.563323 0.263755 0.173728
/muse/elements/gamma_relative 0.198037 0.142755 0.264870 0.257264
/muse/elements/theta_relative 0.092606 0.059375 0.086171 0.085387
/muse/elements/horseshoe 1.000000 2.000000 1.000000 1.000000
/muse/elements/is_good 0 0 0 0
/muse/elements/blink [0]
/muse/elements/jaw_clench [0]
/muse/elements/touching_forehead [1]
/muse/elements/experimental/concentration [0.7406384944915771]
/muse/elements/experimental/mellow [0.0]
/muse/elements/low_freqs_absolute 0.521250 1.407072 1.009072 0.429456
/muse/elements/alpha_absolute 0.634447 0.085137 0.667450 0.032568
/muse/elements/beta_absolute 0.789714 0.924282 0.818922 0.595429
/muse/elements/delta_absolute 0.237588 1.363552 0.886296 0.255833
/muse/elements/gamma_absolute 0.532233 0.767386 0.888129 0.426342
/muse/elements/theta_absolute 0.202128 0.386398 0.400458 -0.052645
/muse/eeg 810.975281 778.075684 889.934387 794.525513
/muse/eeg 824.135132 723.791321 881.709473 797.815491
/muse/drlref 1629032.250000 1645161.250000
/muse/acc 417.969391 867.188843 195.312805
/muse/acc 429.688171 878.907654 199.219055
/muse/acc 437.500671 871.095093 203.125320
/muse/eeg 834.005005 723.791321 876.774536 799.460449
/muse/eeg/quantization 1 2 1 1
/muse/eeg 806.040344 697.471680 843.874939 824.135132
/muse/eeg 797.815491 736.951172 843.874939 837.294983
/muse/eeg 804.395386 730.371277 855.389771 837.294983
/muse/eeg 801.105408 704.051575 848.809875 825.780151
/muse/eeg 815.910278 743.531128 857.034729 810.975281
/muse/eeg 827.425110 746.821106 843.874939 820.845215
/muse/eeg 820.845215 799.460449 857.034729 817.555237
/muse/eeg 817.555237 773.140747 845.519897 810.975281
/muse/eeg 820.845215 730.371277 858.679749 822.490173
/muse/eeg 827.425110 704.051575 875.129517 825.780151
/muse/eeg 812.620300 783.010620 858.679749 817.555237
/muse/eeg 812.620300 743.531128 850.454834 820.845215
/muse/eeg 817.555237 743.531128 829.070068 822.490173
/muse/eeg 822.490173 746.821106 810.975281 834.005005
/muse/eeg 820.845215 736.951172 843.874939 814.265259
/muse/acc 433.594421 867.188843 199.219055
/muse/acc 417.969391 867.188843 195.312805
/muse/drlref 1629032.250000 1645161.250000
/muse/acc 390.625610 867.188843 183.594040
/muse/acc 386.719360 867.188843 183.594040
/muse/eeg 825.780151 802.750427 837.294983 807.685364
/muse/eeg/quantization 1 1 1 1
/muse/eeg 847.164856 755.045959 853.744812 819.200195
/muse/eeg 848.809875 753.401001 873.484558 819.200195
/muse/eeg 855.389771 705.696594 842.229919 819.200195
/muse/elements/alpha_relative 0.250588 0.029672 0.159351 0.103898
/muse/elements/beta_relative 0.358284 0.204874 0.225853 0.379722
/muse/elements/delta_relative 0.100485 0.563323 0.263755 0.173728
/muse/elements/gamma_relative 0.198037 0.142755 0.264870 0.257264
/muse/elements/theta_relative 0.092606 0.059375 0.086171 0.085387
/muse/elements/horseshoe 1.000000 2.000000 1.000000 1.000000
/muse/elements/is_good 0 0 0 0
/muse/elements/blink [0]
/muse/elements/jaw_clench [0]
/muse/elements/touching_forehead [1]
/muse/elements/experimental/concentration [0.7295318245887756]
/muse/elements/experimental/mellow [0.0]
/muse/elements/low_freqs_absolute 0.521250 1.407072 1.009072 0.429456
/muse/elements/alpha_absolute 0.634447 0.085137 0.667450 0.032568
/muse/elements/beta_absolute 0.789714 0.924282 0.818922 0.595429
/muse/elements/delta_absolute 0.237588 1.363552 0.886296 0.255833
/muse/elements/gamma_absolute 0.532233 0.767386 0.888129 0.426342
/muse/elements/theta_absolute 0.202128 0.386398 0.400458 -0.052645
/muse/eeg 840.584961 728.726318 842.229919 810.975281
/muse/eeg 832.360046 759.980896 837.294983 814.265259
/muse/eeg 837.294983 751.756042 840.584961 834.005005
/muse/eeg 830.715088 676.086914 825.780151 848.809875
/muse/eeg 802.750427 723.791321 807.685364 835.650024
/muse/eeg 814.265259 718.856384 819.200195 840.584961
/muse/eeg 810.975281 700.761597 829.070068 835.650024
/muse/eeg 820.845215 712.276489 827.425110 817.555237
/muse/eeg 837.294983 694.181702 843.874939 824.135132
/muse/eeg 825.780151 750.111023 834.005005 825.780151
/muse/eeg 827.425110 727.081299 832.360046 829.070068
/muse/eeg 838.940002 705.696594 840.584961 838.940002
/muse/acc 410.156891 859.376343 199.219055
/muse/acc 421.875671 867.188843 207.031570
/muse/acc 433.594421 878.907654 214.844086
/muse/eeg 837.294983 676.086914 848.809875 843.874939
/muse/eeg/quantization 1 2 1 1
/muse/eeg 834.005005 692.536743 850.454834 825.780151
/muse/eeg 832.360046 738.596191 857.034729 824.135132
/muse/eeg 832.360046 735.306213 853.744812 835.650024
/muse/eeg 845.519897 725.436340 842.229919 830.715088
/muse/eeg 842.229919 699.116638 820.845215 837.294983
/muse/eeg 835.650024 732.016235 835.650024 822.490173
/muse/eeg 843.874939 751.756042 855.389771 827.425110
/muse/eeg 842.229919 705.696594 838.940002 829.070068
/muse/eeg 837.294983 649.767212 842.229919 825.780151
/muse/elements/alpha_relative 0.250588 0.029672 0.159351 0.103898
/muse/elements/beta_relative 0.358284 0.204874 0.225853 0.379722
/muse/elements/delta_relative 0.100485 0.563323 0.263755 0.173728
/muse/elements/gamma_relative 0.198037 0.142755 0.264870 0.257264
/muse/elements/theta_relative 0.092606 0.059375 0.086171 0.085387
/muse/elements/horseshoe 1.000000 2.000000 1.000000 1.000000
/muse/elements/is_good 0 0 0 0
/muse/elements/blink [0]
/muse/elements/jaw_clench [0]
/muse/elements/touching_forehead [1]
/muse/elements/experimental/concentration [0.7184250950813293]
/muse/elements/experimental/mellow [0.0]
/muse/elements/low_freqs_absolute 0.521250 1.407072 1.009072 0.429456
/muse/elements/alpha_absolute 0.634447 0.085137 0.667450 0.032568
/muse/elements/beta_absolute 0.789714 0.924282 0.818922 0.595429
/muse/elements/delta_absolute 0.237588 1.363552 0.886296 0.255833
/muse/elements/gamma_absolute 0.532233 0.767386 0.888129 0.426342
/muse/elements/theta_absolute 0.202128 0.386398 0.400458 -0.052645
/muse/eeg 834.005005 702.406616 838.940002 822.490173
/muse/eeg 835.650024 708.986511 834.005005 822.490173
/muse/eeg 842.229919 708.986511 834.005005 827.425110
/muse/eeg 840.584961 679.376892 832.360046 815.910278
/muse/eeg 827.425110 666.217041 837.294983 815.910278
/muse/eeg 824.135132 718.856384 830.715088 814.265259
/muse/acc 433.594421 894.532654 214.844086
/muse/drlref 1629032.250000 1645161.250000
/muse/acc 445.313202 878.907654 218.750336
/muse/acc 437.500671 851.563843 210.937836
/muse/acc 457.031952 863.282593 222.656601
/muse/eeg 824.135132 676.086914 792.880554 817.555237
/muse/eeg/quantization 1 2 1 1
/muse/eeg 829.070068 676.086914 820.845215 819.200195
/muse/eeg 830.715088 646.477295 825.780151 819.200195
/muse/eeg 842.229919 646.477295 822.490173 838.940002
/muse/eeg 840.584961 685.956787 832.360046 837.294983
/muse/eeg 830.715088 676.086914 829.070068 825.780151
/muse/eeg 830.715088 649.767212 825.780151 842.229919
/muse/eeg 838.940002 695.826660 842.229919 837.294983
/muse/eeg 814.265259 712.276489 843.874939 812.620300
/muse/eeg 817.555237 666.217041 815.910278 801.105408
/muse/eeg 820.845215 669.507019 822.490173 819.200195
/muse/eeg 824.135132 659.637146 824.135132 829.070068
/muse/eeg 820.845215 705.696594 838.940002 827.425110
/muse/eeg 825.780151 685.956787 814.265259 832.360046
/muse/eeg 830.715088 712.276489 819.200195 830.715088
/muse/eeg 840.584961 656.347168 838.940002 842.229919
/muse/elements/alpha_relative 0.250588 0.029672 0.159351 0.103898
/muse/elements/beta_relative 0.358284 0.204874 0.225853 0.379722
/muse/elements/delta_relative 0.100485 0.563323 0.263755 0.173728
/muse/elements/gamma_relative 0.198037 0.142755 0.264870 0.257264
/muse/elements/theta_relative 0.092606 0.059375 0.086171 0.085387
/muse/elements/horseshoe 1.000000 2.000000 1.000000 1.000000
/muse/elements/is_good 0 0 0 0
/muse/elements/blink [0]
/muse/elements/jaw_clench [0]
/muse/elements/touching_forehead [1]
/muse/elements/experimental/concentration [0.7073184251785278]
/muse/elements/experimental/mellow [0.0]
/muse/elements/low_freqs_absolute 0.521250 1.407072 1.009072 0.429456
/muse/elements/alpha_absolute 0.634447 0.085137 0.667450 0.032568
/muse/elements/beta_absolute 0.789714 0.924282 0.818922 0.595429
/muse/elements/delta_absolute 0.237588 1.363552 0.886296 0.255833
/muse/elements/gamma_absolute 0.532233 0.767386 0.888129 0.426342
/muse/elements/theta_absolute 0.202128 0.386398 0.400458 -0.052645
/muse/acc 441.406952 871.095093 210.937836
/muse/acc 445.313202 863.282593 218.750336
/muse/drlref 1629032.250000 1641935.500000
/muse/acc 441.406952 859.376343 214.844086
/muse/acc 441.406952 847.657593 214.844086
Unknown message         
	 Source: 'osc.udp://127.0.0.1:55693/'         
	 Address: '/muse/config'         
	 Types: 's '         
	 Payload: '['{"mac_addr":"000666A069D0","serial_number":"1160-UJMN-69D0","preset":"14","filters_enabled":true,"notch_frequency_hz":60,"battery_data_enabled":true,"compression_enabled":true,"eeg_sample_frequency_hz":3520,"eeg_output_frequency_hz":220,"eeg_channel_count":4,"eeg_samples_bitwidth":10,"eeg_channel_layout":"TP9 FP1 FP2 TP10 ","eeg_downsample":16,"afe_gain":1961,"battery_percent_remaining":36,"battery_millivolts":3724,"eeg_units":"EEG_MICROVOLTS","acc_units":"ACC_GFORCE","eeg_conversion_factor":1.644980342484907,"drlref_conversion_factor":3225.806451612903,"acc_conversion_factor":3.906256109482,"acc_sample_frequency_hz":50,"drlref_sample_frequency_hz":10,"acc_data_enabled":true,"drlref_data_enabled":true,"error_data_enabled":true}\n']'
Unknown message         
	 Source: 'osc.udp://127.0.0.1:55693/'         
	 Address: '/muse/version'         
	 Types: 's '         
	 Payload: '['{"hardware_version":"16.0.0","firmware_headset_version":"7.2.7","firmware_bootloader_version":"7.2.7","firmware_type":"Research","build_number":41,"protocol_version":2}\n']'
/muse/eeg 848.809875 649.767212 822.490173 830.715088
/muse/eeg/quantization 1 1 1 1
/muse/eeg 830.715088 708.986511 855.389771 820.845215
/muse/eeg 827.425110 679.376892 848.809875 842.229919
/muse/eeg 825.780151 672.796936 848.809875 834.005005
/muse/eeg 815.910278 648.122253 827.425110 822.490173
/muse/eeg 834.005005 707.341553 820.845215 837.294983
/muse/eeg 834.005005 720.501404 852.099792 840.584961
/muse/eeg 822.490173 653.057190 850.454834 832.360046
/muse/eeg 829.070068 651.412231 861.969727 829.070068
/muse/eeg 832.360046 712.276489 868.549622 834.005005
/muse/eeg 837.294983 717.211426 865.259644 848.809875
/muse/eeg 837.294983 669.507019 827.425110 845.519897
/muse/eeg 827.425110 664.572083 814.265259 834.005005
/muse/eeg 832.360046 672.796936 847.164856 832.360046
/muse/eeg 838.940002 705.696594 848.809875 829.070068
/muse/eeg 825.780151 702.406616 868.549622 822.490173
/muse/acc 449.219452 851.563843 218.750336
/muse/acc 453.125702 859.376343 222.656601
/muse/acc 449.219452 863.282593 222.656601
/muse/eeg 837.294983 656.347168 855.389771 840.584961
/muse/eeg/quantization 1 1 1 1
/muse/eeg 852.099792 656.347168 815.910278 860.324707
/muse/eeg 845.519897 705.696594 835.650024 845.519897
/muse/eeg 830.715088 697.471680 852.099792 822.490173
/muse/eeg 830.715088 677.731873 860.324707 830.715088
/muse/eeg 838.940002 718.856384 838.940002 830.715088
/muse/elements/alpha_relative 0.250588 0.029672 0.159351 0.103898
/muse/elements/beta_relative 0.358284 0.204874 0.225853 0.379722
/muse/elements/delta_relative 0.100485 0.563323 0.263755 0.173728
/muse/elements/gamma_relative 0.198037 0.142755 0.264870 0.257264
/muse/elements/theta_relative 0.092606 0.059375 0.086171 0.085387
/muse/elements/horseshoe 1.000000 2.000000 1.000000 1.000000
/muse/elements/is_good 0 0 0 0
/muse/elements/blink [0]
/muse/elements/jaw_clench [0]
/muse/elements/touching_forehead [1]
/muse/elements/experimental/concentration [0.6962117552757263]
/muse/elements/experimental/mellow [0.0]
/muse/elements/low_freqs_absolute 0.521250 1.407072 1.009072 0.429456
/muse/elements/alpha_absolute 0.634447 0.085137 0.667450 0.032568
/muse/elements/beta_absolute 0.789714 0.924282 0.818922 0.595429
/muse/elements/delta_absolute 0.237588 1.363552 0.886296 0.255833
/muse/elements/gamma_absolute 0.532233 0.767386 0.888129 0.426342
/muse/elements/theta_absolute 0.202128 0.386398 0.400458 -0.052645
/muse/eeg 857.034729 677.731873 810.975281 853.744812
/muse/eeg 837.294983 710.631531 829.070068 838.940002
/muse/eeg 825.780151 708.986511 838.940002 824.135132
/muse/eeg 817.555237 684.311829 829.070068 829.070068
/muse/eeg 815.910278 667.862000 840.584961 822.490173
/muse/eeg 822.490173 715.566467 847.164856 815.910278
/muse/eeg 829.070068 730.371277 819.200195 829.070068
/muse/eeg 817.555237 705.696594 829.070068 802.750427
/muse/eeg 787.945557 681.021851 832.360046 771.495789
/muse/eeg 778.075684 713.921448 810.975281 768.205811
/muse/acc 445.313202 855.470093 226.562851
/muse/eeg 783.010620 806.040344 825.780151 763.270874
/muse/drlref 1629032.250000 1641935.500000
/muse/acc 449.219452 855.470093 242.187881
/muse/acc 445.313202 859.376343 250.000397
/muse/acc 437.500671 859.376343 257.812897
/muse/eeg 784.655640 796.170471 792.880554 778.075684
/muse/eeg/quantization 1 1 1 1
/muse/eeg 791.235535 778.075684 792.880554 771.495789
/muse/eeg 797.815491 722.146362 809.330322 758.335938
/muse/eeg 801.105408 736.951172 835.650024 771.495789
/muse/eeg 797.815491 774.785767 804.395386 764.915833
/muse/eeg 802.750427 802.750427 791.235535 774.785767
/muse/eeg 814.265259 738.596191 810.975281 786.300598
/muse/eeg 807.685364 776.430725 824.135132 789.590576
/muse/eeg 825.780151 776.430725 822.490173 799.460449
/muse/eeg 850.454834 759.980896 817.555237 822.490173
/muse/eeg 852.099792 769.850830 809.330322 814.265259
/muse/elements/alpha_relative 0.242757 0.029672 0.159351 0.116236
/muse/elements/beta_relative 0.352518 0.204874 0.225853 0.350095
/muse/elements/delta_relative 0.222793 0.563323 0.263755 0.263331
/muse/elements/gamma_relative 0.136807 0.142755 0.264870 0.184612
/muse/elements/theta_relative 0.045125 0.059375 0.086171 0.085726
/muse/elements/horseshoe 1.000000 2.000000 1.000000 1.000000
/muse/elements/is_good 1 0 0 1
/muse/elements/blink [0]
/muse/elements/jaw_clench [0]
/muse/elements/touching_forehead [1]
/muse/elements/experimental/concentration [0.7129117846488953]
/muse/elements/experimental/mellow [0.013988961465656757]
/muse/elements/low_freqs_absolute 1.349013 1.407072 1.009072 1.191849
/muse/elements/alpha_absolute 1.306182 0.085137 0.667450 0.714293
/muse/elements/beta_absolute 1.468191 0.924282 0.818922 1.193139
/muse/elements/delta_absolute 1.268912 1.363552 0.886296 1.069454
/muse/elements/gamma_absolute 1.057120 0.767386 0.888129 0.915214
/muse/elements/theta_absolute 0.575428 0.386398 0.400458 0.582064
/muse/eeg 845.519897 708.986511 809.330322 819.200195
/muse/eeg 837.294983 783.010620 835.650024 815.910278
/muse/eeg 843.874939 743.531128 819.200195 819.200195
/muse/eeg 842.229919 759.980896 815.910278 825.780151
/muse/eeg 861.969727 738.596191 809.330322 825.780151
/muse/acc 433.594421 863.282593 261.719147
/muse/acc 425.781921 871.095093 261.719147
/muse/drlref 1629032.250000 1641935.500000
/muse/acc 417.969391 867.188843 269.531677
/muse/acc 417.969391 855.470093 277.344177
/muse/eeg 855.389771 748.466064 817.555237 824.135132
/muse/eeg/quantization 1 1 1 1
/muse/eeg 843.874939 810.975281 810.975281 817.555237
/muse/eeg 848.809875 761.625916 801.105408 824.135132
/muse/eeg 850.454834 758.335938 822.490173 829.070068
/muse/eeg 847.164856 741.886108 814.265259 830.715088
/muse/eeg 847.164856 792.880554 815.910278 829.070068
/muse/eeg 853.744812 791.235535 825.780151 835.650024
/muse/eeg 853.744812 758.335938 814.265259 830.715088
/muse/eeg 857.034729 722.146362 804.395386 838.940002
/muse/eeg 875.129517 743.531128 797.815491 847.164856
/muse/eeg 878.419495 773.140747 806.040344 850.454834
/muse/eeg 857.034729 759.980896 817.555237 853.744812
/muse/eeg 857.034729 763.270874 810.975281 838.940002
/muse/eeg 860.324707 751.756042 824.135132 843.874939
/muse/eeg 840.584961 778.075684 820.845215 827.425110
/muse/eeg 842.229919 771.495789 815.910278 822.490173
/muse/acc 421.875671 851.563843 285.156708
/muse/acc 417.969391 859.376343 289.062958
/muse/acc 414.063141 863.282593 292.969208
/muse/eeg 853.744812 771.495789 834.005005 830.715088
/muse/elements/alpha_relative 0.258243 0.029672 0.159351 0.129393
/muse/elements/beta_relative 0.334871 0.204874 0.225853 0.327135
/muse/elements/delta_relative 0.229007 0.563323 0.263755 0.261910
/muse/elements/gamma_relative 0.127386 0.142755 0.264870 0.186260
/muse/elements/theta_relative 0.050494 0.059375 0.086171 0.095302
/muse/elements/horseshoe 1.000000 2.000000 1.000000 1.000000
/muse/elements/is_good 1 0 0 1
/muse/elements/blink [0]
/muse/elements/jaw_clench [0]
/muse/elements/touching_forehead [1]
/muse/elements/experimental/concentration [0.7294812798500061]
/muse/elements/experimental/mellow [0.028303246945142746]
/muse/elements/low_freqs_absolute 1.348912 1.407072 1.009072 1.188433
/muse/elements/alpha_absolute 1.314556 0.085137 0.667450 0.747416
/muse/elements/beta_absolute 1.427406 0.924282 0.818922 1.150234
/muse/elements/delta_absolute 1.262377 1.363552 0.886296 1.053658
/muse/elements/gamma_absolute 1.007649 0.767386 0.888129 0.905626
/muse/elements/theta_absolute 0.605769 0.386398 0.400458 0.614610
/muse/eeg/quantization 1 1 1 1
/muse/eeg 850.454834 773.140747 820.845215 814.265259
/muse/eeg 863.614685 806.040344 810.975281 829.070068
/muse/eeg 873.484558 791.235535 807.685364 847.164856
/muse/eeg 850.454834 741.886108 799.460449 835.650024
/muse/eeg 848.809875 763.270874 804.395386 825.780151
/muse/eeg 845.519897 746.821106 812.620300 817.555237
/muse/eeg 817.555237 794.525513 830.715088 794.525513
/muse/eeg 843.874939 787.945557 804.395386 810.975281
/muse/eeg 848.809875 766.560852 804.395386 810.975281
/muse/eeg 858.679749 755.045959 804.395386 819.200195
/muse/eeg 850.454834 804.395386 825.780151 820.845215
/muse/eeg 857.034729 815.910278 832.360046 815.910278
/muse/eeg 863.614685 786.300598 817.555237 829.070068
/muse/eeg 853.744812 748.466064 812.620300 820.845215
/muse/eeg 853.744812 799.460449 812.620300 815.910278
/muse/acc 414.063141 863.282593 304.687988
/muse/drlref 1629032.250000 1645161.250000
/muse/acc 414.063141 863.282593 312.500488
/muse/acc 417.969391 867.188843 316.406738
/muse/acc 410.156891 867.188843 320.312988
/muse/eeg 840.584961 807.685364 819.200195 824.135132
/muse/eeg/quantization 1 1 1 1
/muse/eeg 852.099792 792.880554 809.330322 819.200195
/muse/eeg 878.419495 801.105408 810.975281 843.874939
/muse/eeg 865.259644 755.045959 817.555237 840.584961
/muse/eeg 855.389771 791.235535 837.294983 817.555237
/muse/eeg 863.614685 814.265259 848.809875 827.425110
/muse/eeg 848.809875 791.235535 832.360046 830.715088
/muse/elements/alpha_relative 0.276580 0.029672 0.159351 0.150685
/muse/elements/beta_relative 0.316286 0.204874 0.225853 0.294628
/muse/elements/delta_relative 0.225066 0.563323 0.263755 0.250511
/muse/elements/gamma_relative 0.119040 0.142755 0.264870 0.178971
/muse/elements/theta_relative 0.063027 0.059375 0.086171 0.125204
/muse/elements/horseshoe 1.000000 4.000000 1.000000 1.000000
/muse/elements/is_good 1 0 0 1
/muse/elements/blink [0]
/muse/elements/jaw_clench [0]
/muse/elements/touching_forehead [1]
/muse/elements/experimental/concentration [0.7459161877632141]
/muse/elements/experimental/mellow [0.04366724565625191]
/muse/elements/low_freqs_absolute 1.345786 1.407072 1.009072 1.218386
/muse/elements/alpha_absolute 1.328074 0.085137 0.667450 0.821598
/muse/elements/beta_absolute 1.386334 0.924282 0.818922 1.112801
/muse/elements/delta_absolute 1.238563 1.363552 0.886296 1.042354
/muse/elements/gamma_absolute 0.961947 0.767386 0.888129 0.896310
/muse/elements/theta_absolute 0.685782 0.386398 0.400458 0.741146
/muse/eeg 878.419495 768.205811 827.425110 838.940002
/muse/eeg 861.969727 815.910278 822.490173 829.070068
/muse/eeg 843.874939 810.975281 809.330322 814.265259
/muse/eeg 861.969727 807.685364 810.975281 827.425110
/muse/eeg 863.614685 794.525513 799.460449 838.940002
/muse/eeg 857.034729 756.690979 801.105408 847.164856
/muse/eeg 861.969727 829.070068 848.809875 832.360046
/muse/eeg 861.969727 776.430725 847.164856 832.360046
/muse/eeg 861.969727 797.815491 853.744812 827.425110
/muse/acc 406.250641 863.282593 324.219269
/muse/acc 402.344391 859.376343 324.219269
/muse/drlref 1629032.250000 1641935.500000
/muse/acc 398.438110 855.470093 324.219269
/muse/eeg 870.194580 786.300598 829.070068 843.874939
/muse/eeg/quantization 1 1 1 1
/muse/eeg 871.839600 794.525513 814.265259 843.874939
/muse/eeg 852.099792 794.525513 820.845215 824.135132
/muse/eeg 866.904663 763.270874 820.845215 835.650024
/muse/eeg 866.904663 766.560852 819.200195 830.715088
/muse/eeg 845.519897 784.655640 820.845215 819.200195
/muse/eeg 827.425110 829.070068 834.005005 806.040344
/muse/eeg 843.874939 791.235535 830.715088 815.910278
/muse/eeg 853.744812 791.235535 827.425110 815.910278
/muse/eeg 842.229919 738.596191 824.135132 817.555237
/muse/eeg 855.389771 763.270874 842.229919 830.715088
/muse/eeg 860.324707 787.945557 809.330322 824.135132
/muse/eeg 858.679749 797.815491 801.105408 832.360046
/muse/elements/alpha_relative 0.292931 0.029672 0.159351 0.174705
/muse/elements/beta_relative 0.294153 0.204874 0.225853 0.251818
/muse/elements/delta_relative 0.216053 0.563323 0.263755 0.238266
/muse/elements/gamma_relative 0.111670 0.142755 0.264870 0.162044
/muse/elements/theta_relative 0.085193 0.059375 0.086171 0.173167
/muse/elements/horseshoe 1.000000 2.000000 1.000000 1.000000
/muse/elements/is_good 1 0 0 1
/muse/elements/blink [0]
/muse/elements/jaw_clench [0]
/muse/elements/touching_forehead [1]
/muse/elements/experimental/concentration [0.7622265219688416]
/muse/elements/experimental/mellow [0.06025440990924835]
/muse/elements/low_freqs_absolute 1.357593 1.407072 1.009072 1.293998
/muse/elements/alpha_absolute 1.345437 0.085137 0.667450 0.922003
/muse/elements/beta_absolute 1.347244 0.924282 0.818922 1.080785
/muse/elements/delta_absolute 1.213231 1.363552 0.886296 1.056760
/muse/elements/gamma_absolute 0.926607 0.767386 0.888129 0.889331
/muse/elements/theta_absolute 0.809077 0.386398 0.400458 0.918164
/muse/eeg 865.259644 847.164856 824.135132 812.620300
/muse/eeg 852.099792 817.555237 804.395386 815.910278
/muse/eeg 840.584961 834.005005 835.650024 812.620300
/muse/acc 394.531860 851.563843 324.219269
/muse/acc 382.813110 851.563843 320.312988
/muse/acc 375.000580 855.470093 328.125519
/muse/acc 382.813110 859.376343 339.844269
/muse/eeg 857.034729 766.560852 824.135132 806.040344
/muse/eeg/quantization 1 1 1 1
/muse/eeg 858.679749 794.525513 810.975281 817.555237
/muse/eeg 865.259644 759.980896 829.070068 829.070068
/muse/eeg 845.519897 784.655640 827.425110 819.200195
/muse/eeg 871.839600 812.620300 804.395386 840.584961
/muse/eeg 819.200195 807.685364 809.330322 817.555237
/muse/eeg 850.454834 791.235535 827.425110 835.650024
/muse/eeg 853.744812 792.880554 832.360046 842.229919
/muse/eeg 835.650024 812.620300 832.360046 806.040344
/muse/eeg 848.809875 774.785767 827.425110 820.845215
/muse/eeg 832.360046 796.170471 827.425110 807.685364
/muse/eeg 843.874939 779.720703 815.910278 830.715088
/muse/eeg 878.419495 847.164856 806.040344 847.164856
/muse/eeg 868.549622 829.070068 799.460449 843.874939
/muse/eeg 865.259644 796.170471 834.005005 825.780151
/muse/eeg 855.389771 746.821106 838.940002 830.715088
/muse/drlref 1629032.250000 1641935.500000
/muse/acc 394.531860 855.470093 347.656799
/muse/acc 386.719360 863.282593 339.844269
/muse/acc 394.531860 859.376343 332.031769
/muse/acc 402.344391 855.470093 328.125519
/muse/eeg 848.809875 763.270874 824.135132 832.360046
/muse/eeg/quantization 1 1 1 1
/muse/eeg 857.034729 812.620300 819.200195 842.229919
/muse/eeg 853.744812 804.395386 832.360046 837.294983
/muse/elements/alpha_relative 0.300152 0.029672 0.081846 0.188230
/muse/elements/beta_relative 0.268811 0.204874 0.303409 0.210750
/muse/elements/delta_relative 0.212179 0.563323 0.170659 0.232286
/muse/elements/gamma_relative 0.105065 0.142755 0.273934 0.142317
/muse/elements/theta_relative 0.113794 0.059375 0.170153 0.226418
/muse/elements/horseshoe 1.000000 2.000000 1.000000 1.000000
/muse/elements/is_good 1 0 1 1
/muse/elements/blink [0]
/muse/elements/jaw_clench [0]
/muse/elements/touching_forehead [1]
/muse/elements/experimental/concentration [0.7781550288200378]
/muse/elements/experimental/mellow [0.07695440948009491]
/muse/elements/low_freqs_absolute 1.395156 1.407072 1.316458 1.392352
/muse/elements/alpha_absolute 1.359316 0.085137 0.696939 1.005508
/muse/elements/beta_absolute 1.311422 0.924282 1.265971 1.054588
/muse/elements/delta_absolute 1.208677 1.363552 1.016072 1.096843
/muse/elements/gamma_absolute 0.903433 0.767386 1.221588 0.884076
/muse/elements/theta_absolute 0.938093 0.386398 1.014782 1.085730
/muse/eeg 852.099792 809.330322 848.809875 842.229919
/muse/eeg 858.679749 814.265259 843.874939 834.005005
/muse/eeg 852.099792 837.294983 824.135132 824.135132
/muse/eeg 876.774536 837.294983 820.845215 843.874939
/muse/eeg 870.194580 787.945557 804.395386 855.389771
/muse/eeg 870.194580 748.466064 810.975281 842.229919
/muse/eeg 868.549622 817.555237 812.620300 850.454834
/muse/eeg 855.389771 838.940002 825.780151 824.135132
/muse/eeg 848.809875 840.584961 829.070068 799.460449
/muse/eeg 870.194580 835.650024 838.940002 824.135132
/muse/eeg 840.584961 783.010620 832.360046 809.330322
/muse/eeg 857.034729 843.874939 814.265259 825.780151
/muse/eeg 838.940002 842.229919 812.620300 817.555237
/muse/acc 410.156891 843.751343 320.312988
/muse/acc 410.156891 847.657593 316.406738
/muse/drlref 1629032.250000 1641935.500000
/muse/acc 406.250641 855.470093 312.500488
/muse/eeg 840.584961 832.360046 812.620300 809.330322
/muse/eeg/quantization 1 2 1 1
/muse/eeg 857.034729 783.010620 814.265259 824.135132
/muse/eeg 848.809875 815.910278 834.005005 815.910278
/muse/eeg 860.324707 815.910278 838.940002 807.685364
/muse/eeg 835.650024 829.070068 822.490173 801.105408
/muse/eeg 825.780151 835.650024 822.490173 773.140747
/muse/eeg 820.845215 809.330322 819.200195 786.300598
/muse/eeg 809.330322 871.839600 832.360046 779.720703
/muse/eeg 801.105408 825.780151 814.265259 756.690979
/muse/elements/alpha_relative 0.294822 0.029672 0.084672 0.201890
/muse/elements/beta_relative 0.245608 0.204874 0.283217 0.177588
/muse/elements/delta_relative 0.218419 0.563323 0.191308 0.228334
/muse/elements/gamma_relative 0.099452 0.142755 0.272632 0.124090
/muse/elements/theta_relative 0.141699 0.059375 0.168171 0.268097
/muse/elements/horseshoe 1.000000 4.000000 1.000000 1.000000
/muse/elements/is_good 1 0 1 1
/muse/elements/blink [0]
/muse/elements/jaw_clench [0]
/muse/elements/touching_forehead [1]
/muse/elements/experimental/concentration [0.7940778732299805]
/muse/elements/experimental/mellow [0.09365440905094147]
/muse/elements/low_freqs_absolute 1.446924 1.407072 1.326242 1.480611
/muse/elements/alpha_absolute 1.360041 0.085137 0.698308 1.089867
/muse/elements/beta_absolute 1.280722 0.924282 1.222688 1.034166
/muse/elements/delta_absolute 1.229770 1.363552 1.052301 1.143323
/muse/elements/gamma_absolute 0.888094 0.767386 1.206145 0.878491
/muse/elements/theta_absolute 1.041847 0.386398 0.996321 1.213045
/muse/eeg 771.495789 812.620300 812.620300 727.081299
/muse/eeg 746.821106 796.170471 814.265259 722.146362
/muse/eeg 733.661255 832.360046 819.200195 717.211426
/muse/eeg 715.566467 796.170471 807.685364 682.666870
/muse/eeg 695.826660 829.070068 815.910278 669.507019
/muse/eeg 725.436340 789.590576 824.135132 687.601807
/muse/eeg 710.631531 819.200195 807.685364 674.441956
/muse/acc 406.250641 851.563843 308.594238
/muse/eeg 676.086914 834.005005 792.880554 646.477295
/muse/acc 410.156891 851.563843 308.594238
/muse/acc 414.063141 859.376343 308.594238
/muse/acc 410.156891 859.376343 308.594238
/muse/eeg 676.086914 830.715088 815.910278 653.057190
/muse/eeg/quantization 1 1 1 1
/muse/eeg 639.897339 827.425110 784.655640 633.317444
/muse/eeg 659.637146 786.300598 799.460449 639.897339
/muse/eeg 654.702148 809.330322 806.040344 639.897339
/muse/eeg 682.666870 843.874939 787.945557 656.347168
/muse/eeg 702.406616 842.229919 812.620300 679.376892
/muse/eeg 699.116638 797.815491 794.525513 695.826660
/muse/eeg 720.501404 794.525513 802.750427 702.406616
/muse/eeg 735.306213 812.620300 815.910278 699.116638
/muse/eeg 732.016235 837.294983 822.490173 713.921448
/muse/eeg 733.661255 847.164856 830.715088 710.631531
/muse/eeg 764.915833 830.715088 817.555237 738.596191
/muse/eeg 766.560852 807.685364 804.395386 750.111023
/muse/eeg 797.815491 806.040344 824.135132 774.785767
/muse/elements/alpha_relative 0.294822 0.029672 0.088832 0.201890
/muse/elements/beta_relative 0.245608 0.204874 0.274161 0.177588
/muse/elements/delta_relative 0.218419 0.563323 0.209991 0.228334
/muse/elements/gamma_relative 0.099452 0.142755 0.267124 0.124090
/muse/elements/theta_relative 0.141699 0.059375 0.159893 0.268097
/muse/elements/horseshoe 1.000000 2.000000 1.000000 1.000000
/muse/elements/is_good 1 0 1 1
/muse/elements/blink [0]
/muse/elements/jaw_clench [0]
/muse/elements/touching_forehead [1]
/muse/elements/experimental/concentration [0.8100006580352783]
/muse/elements/experimental/mellow [0.11035440862178802]
/muse/elements/low_freqs_absolute 1.446924 1.407072 1.327481 1.480611
/muse/elements/alpha_absolute 1.360041 0.085137 0.707984 1.089867
/muse/elements/beta_absolute 1.280722 0.924282 1.197422 1.034166
/muse/elements/delta_absolute 1.229770 1.363552 1.081616 1.143323
/muse/elements/gamma_absolute 0.888094 0.767386 1.186130 0.878491
/muse/elements/theta_absolute 1.041847 0.386398 0.963245 1.213045
/muse/eeg 801.105408 804.395386 786.300598 784.655640
/muse/eeg 792.880554 827.425110 779.720703 771.495789
/muse/drlref 1629032.250000 1645161.250000
/muse/acc 406.250641 863.282593 304.687988
/muse/acc 402.344391 863.282593 300.781708
/muse/acc 402.344391 863.282593 296.875458
/muse/acc 398.438110 863.282593 292.969208
/muse/eeg 825.780151 842.229919 796.170471 796.170471
/muse/eeg/quantization 1 1 1 1
/muse/eeg 830.715088 853.744812 817.555237 796.170471
/muse/eeg 832.360046 794.525513 822.490173 806.040344
/muse/eeg 858.679749 825.780151 832.360046 832.360046
/muse/eeg 840.584961 819.200195 804.395386 827.425110
/muse/eeg 847.164856 815.910278 804.395386 825.780151
/muse/eeg 861.969727 827.425110 799.460449 825.780151
/muse/eeg 871.839600 796.170471 804.395386 843.874939
/muse/eeg 878.419495 787.945557 806.040344 845.519897
/muse/eeg 870.194580 832.360046 820.845215 845.519897
/muse/eeg 880.064453 847.164856 814.265259 847.164856
/muse/eeg 893.224304 812.620300 806.040344 863.614685
/muse/eeg 903.094238 786.300598 809.330322 873.484558
/muse/eeg 894.869324 778.075684 796.170471 863.614685
/muse/eeg 898.159241 834.005005 804.395386 878.419495
/muse/eeg 914.609070 820.845215 809.330322 881.709473
/muse/acc 398.438110 863.282593 289.062958
/muse/acc 398.438110 855.470093 289.062958
/muse/drlref 1629032.250000 1641935.500000
/muse/acc 402.344391 855.470093 285.156708
/muse/eeg 911.319092 806.040344 815.910278 884.999451
/muse/eeg/quantization 1 1 1 1
/muse/eeg 924.478943 764.915833 812.620300 899.804260
/muse/eeg 911.319092 832.360046 819.200195 873.484558
/muse/eeg 909.674133 794.525513 830.715088 888.289368
/muse/elements/alpha_relative 0.294822 0.029672 0.092961 0.201890
/muse/elements/beta_relative 0.245608 0.204874 0.277410 0.177588
/muse/elements/delta_relative 0.218419 0.563323 0.219761 0.228334
/muse/elements/gamma_relative 0.099452 0.142755 0.260048 0.124090
/muse/elements/theta_relative 0.141699 0.059375 0.149819 0.268097
/muse/elements/horseshoe 1.000000 1.000000 1.000000 1.000000
/muse/elements/is_good 1 0 1 1
/muse/elements/blink [0]
/muse/elements/jaw_clench [0]
/muse/elements/touching_forehead [1]
/muse/elements/experimental/concentration [0.825917661190033]
/muse/elements/experimental/mellow [0.12705440819263458]
/muse/elements/low_freqs_absolute 1.446924 1.407072 1.313355 1.480611
/muse/elements/alpha_absolute 1.360041 0.085137 0.713947 1.089867
/muse/elements/beta_absolute 1.280722 0.924282 1.188769 1.034166
/muse/elements/delta_absolute 1.229770 1.363552 1.087597 1.143323
/muse/elements/gamma_absolute 0.888094 0.767386 1.160699 0.878491
/muse/elements/theta_absolute 1.041847 0.386398 0.921214 1.213045
/muse/eeg 912.964111 807.685364 825.780151 880.064453
/muse/eeg 886.644409 810.975281 827.425110 868.549622
/muse/eeg 906.384155 801.105408 810.975281 884.999451
/muse/eeg 911.319092 853.744812 824.135132 880.064453
/muse/eeg 914.609070 791.235535 820.845215 884.999451
/muse/eeg 924.478943 797.815491 830.715088 894.869324
/muse/eeg 926.123962 759.980896 817.555237 896.514282
/muse/eeg 921.188965 789.590576 814.265259 896.514282
/muse/eeg 927.768921 806.040344 834.005005 894.869324
/muse/eeg 922.833984 830.715088 817.555237 891.579346
/muse/eeg 917.899048 810.975281 815.910278 903.094238
/muse/eeg 916.254028 807.685364 820.845215 893.224304
/muse/acc 398.438110 863.282593 285.156708
/muse/acc 402.344391 859.376343 289.062958
/muse/acc 402.344391 859.376343 289.062958
/muse/acc 402.344391 855.470093 289.062958
/muse/eeg 914.609070 817.555237 827.425110 889.934387
/muse/eeg/quantization 1 2 1 1
/muse/eeg 919.544006 774.785767 845.519897 896.514282
/muse/eeg 896.514282 814.265259 817.555237 873.484558
/muse/eeg 914.609070 778.075684 825.780151 889.934387
/muse/eeg 896.514282 810.975281 819.200195 884.999451
/muse/eeg 896.514282 830.715088 810.975281 880.064453
/muse/eeg 898.159241 804.395386 804.395386 886.644409
/muse/eeg 912.964111 761.625916 822.490173 899.804260
/muse/eeg 919.544006 787.945557 850.454834 889.934387
/muse/eeg 903.094238 810.975281 850.454834 876.774536
/muse/elements/alpha_relative 0.294822 0.029672 0.098405 0.201890
/muse/elements/beta_relative 0.245608 0.204874 0.287773 0.177588
/muse/elements/delta_relative 0.218419 0.563323 0.220417 0.228334
/muse/elements/gamma_relative 0.099452 0.142755 0.252750 0.124090
/muse/elements/theta_relative 0.141699 0.059375 0.140655 0.268097
/muse/elements/horseshoe 1.000000 1.000000 1.000000 1.000000
/muse/elements/is_good 1 0 1 1
/muse/elements/blink [1]
/muse/elements/jaw_clench [0]
/muse/elements/touching_forehead [1]
/muse/elements/experimental/concentration [0.8418346643447876]
/muse/elements/experimental/mellow [0.14375440776348114]
/muse/elements/low_freqs_absolute 1.446924 1.407072 1.288031 1.480611
/muse/elements/alpha_absolute 1.360041 0.085137 0.723455 1.089867
/muse/elements/beta_absolute 1.280722 0.924282 1.189488 1.034166
/muse/elements/delta_absolute 1.229770 1.363552 1.073682 1.143323
/muse/elements/gamma_absolute 0.888094 0.767386 1.133129 0.878491
/muse/elements/theta_absolute 1.041847 0.386398 0.878592 1.213045
/muse/eeg 903.094238 807.685364 853.744812 876.774536
/muse/eeg 906.384155 807.685364 847.164856 878.419495
/muse/eeg 911.319092 771.495789 814.265259 884.999451
/muse/eeg 893.224304 791.235535 810.975281 868.549622
/muse/eeg 880.064453 837.294983 817.555237 860.324707
/muse/eeg 876.774536 807.685364 820.845215 847.164856
/muse/drlref 1629032.250000 1641935.500000
/muse/acc 406.250641 859.376343 289.062958
/muse/acc 410.156891 859.376343 292.969208
/muse/acc 410.156891 863.282593 292.969208
Unknown message         
	 Source: 'osc.udp://127.0.0.1:55693/'         
	 Address: '/muse/config'         
	 Types: 's '         
	 Payload: '['{"mac_addr":"000666A069D0","serial_number":"1160-UJMN-69D0","preset":"14","filters_enabled":true,"notch_frequency_hz":60,"battery_data_enabled":true,"compression_enabled":true,"eeg_sample_frequency_hz":3520,"eeg_output_frequency_hz":220,"eeg_channel_count":4,"eeg_samples_bitwidth":10,"eeg_channel_layout":"TP9 FP1 FP2 TP10 ","eeg_downsample":16,"afe_gain":1961,"battery_percent_remaining":36,"battery_millivolts":3724,"eeg_units":"EEG_MICROVOLTS","acc_units":"ACC_GFORCE","eeg_conversion_factor":1.644980342484907,"drlref_conversion_factor":3225.806451612903,"acc_conversion_factor":3.906256109482,"acc_sample_frequency_hz":50,"drlref_sample_frequency_hz":10,"acc_data_enabled":true,"drlref_data_enabled":true,"error_data_enabled":true}\n']'
Unknown message         
	 Source: 'osc.udp://127.0.0.1:55693/'         
	 Address: '/muse/version'         
	 Types: 's '         
	 Payload: '['{"hardware_version":"16.0.0","firmware_headset_version":"7.2.7","firmware_bootloader_version":"7.2.7","firmware_type":"Research","build_number":41,"protocol_version":2}\n']'
/muse/eeg 888.289368 794.525513 832.360046 866.904663
/muse/eeg/quantization 1 1 1 1
/muse/eeg 899.804260 815.910278 834.005005 884.999451
/muse/eeg 880.064453 796.170471 837.294983 858.679749
/muse/eeg 884.999451 783.010620 837.294983 868.549622
/muse/eeg 906.384155 801.105408 847.164856 880.064453
/muse/eeg 886.644409 769.850830 829.070068 863.614685
/muse/eeg 878.419495 815.910278 819.200195 857.034729
/muse/eeg 886.644409 843.874939 814.265259 861.969727
/muse/eeg 898.159241 781.365662 814.265259 871.839600
/muse/eeg 886.644409 758.335938 820.845215 855.389771
/muse/eeg 870.194580 812.620300 829.070068 847.164856
/muse/eeg 878.419495 802.750427 838.940002 858.679749
/muse/eeg 870.194580 806.040344 852.099792 857.034729
/muse/eeg 875.129517 756.690979 827.425110 858.679749
/muse/eeg 883.354431 769.850830 834.005005 871.839600
/muse/eeg 870.194580 820.845215 835.650024 853.744812
/muse/elements/alpha_relative 0.294822 0.029672 0.102528 0.201890
/muse/elements/beta_relative 0.245608 0.204874 0.299608 0.177588
/muse/elements/delta_relative 0.218419 0.563323 0.219070 0.228334
/muse/elements/gamma_relative 0.099452 0.142755 0.245807 0.124090
/muse/elements/theta_relative 0.141699 0.059375 0.132988 0.268097
/muse/elements/horseshoe 1.000000 1.000000 1.000000 1.000000
/muse/elements/is_good 1 0 1 1
/muse/elements/blink [0]
/muse/elements/jaw_clench [0]
/muse/elements/touching_forehead [1]
/muse/elements/experimental/concentration [0.8577452301979065]
/muse/elements/experimental/mellow [0.1604544073343277]
/muse/elements/low_freqs_absolute 1.446924 1.407072 1.262673 1.480611
/muse/elements/alpha_absolute 1.360041 0.085137 0.726903 1.089867
/muse/elements/beta_absolute 1.280722 0.924282 1.192613 1.034166
/muse/elements/delta_absolute 1.229770 1.363552 1.056642 1.143323
/muse/elements/gamma_absolute 0.888094 0.767386 1.106653 0.878491
/muse/elements/theta_absolute 1.041847 0.386398 0.839871 1.213045
/muse/acc 410.156891 859.376343 296.875458
/muse/acc 410.156891 859.376343 300.781708
/muse/acc 414.063141 859.376343 300.781708
/muse/drlref 1629032.250000 1641935.500000
/muse/acc 414.063141 859.376343 300.781708
/muse/eeg 871.839600 804.395386 830.715088 848.809875
/muse/eeg/quantization 1 1 1 1
/muse/eeg 871.839600 822.490173 812.620300 853.744812
/muse/eeg 878.419495 758.335938 801.105408 860.324707
/muse/eeg 868.549622 789.590576 830.715088 853.744812
/muse/eeg 886.644409 768.205811 834.005005 861.969727
/muse/eeg 891.579346 794.525513 834.005005 857.034729
/muse/eeg 883.354431 789.590576 832.360046 855.389771
/muse/eeg 858.679749 799.460449 809.330322 827.425110
/muse/eeg 837.294983 796.170471 827.425110 814.265259
/muse/eeg 834.005005 804.395386 835.650024 819.200195
/muse/eeg 827.425110 802.750427 845.519897 804.395386
/muse/eeg 842.229919 753.401001 845.519897 809.330322
/muse/eeg 802.750427 779.720703 817.555237 773.140747
/muse/eeg 784.655640 769.850830 794.525513 756.690979
/muse/eeg 764.915833 838.940002 822.490173 745.176086
/muse/eeg 736.951172 768.205811 860.324707 725.436340
/muse/acc 414.063141 863.282593 300.781708
/muse/acc 410.156891 871.095093 296.875458
/muse/acc 406.250641 871.095093 296.875458
/muse/acc 398.438110 867.188843 296.875458
/muse/eeg 718.856384 778.075684 842.229919 700.761597
/muse/eeg/quantization 1 1 1 1
/muse/eeg 746.821106 815.910278 853.744812 727.081299
/muse/eeg 783.010620 766.560852 822.490173 768.205811
/muse/eeg 778.075684 771.495789 812.620300 764.915833
/muse/eeg 801.105408 769.850830 838.940002 779.720703
/muse/eeg 806.040344 776.430725 820.845215 787.945557
/muse/elements/alpha_relative 0.294822 0.050382 0.109663 0.201890
/muse/elements/beta_relative 0.245608 0.278815 0.307431 0.177588
/muse/elements/delta_relative 0.218419 0.231331 0.219908 0.228334
/muse/elements/gamma_relative 0.099452 0.327832 0.237543 0.124090
/muse/elements/theta_relative 0.141699 0.111639 0.125456 0.268097
/muse/elements/horseshoe 1.000000 1.000000 1.000000 1.000000
/muse/elements/is_good 1 1 1 1
/muse/elements/blink [0]
/muse/elements/jaw_clench [0]
/muse/elements/touching_forehead [1]
/muse/elements/experimental/concentration [0.8736558556556702]
/muse/elements/experimental/mellow [0.17715440690517426]
/muse/elements/low_freqs_absolute 1.446924 1.480385 1.245172 1.480611
/muse/elements/alpha_absolute 1.360041 0.647405 0.746955 1.089867
/muse/elements/beta_absolute 1.280722 1.390445 1.194643 1.034166
/muse/elements/delta_absolute 1.229770 1.309362 1.049136 1.143323
/muse/elements/gamma_absolute 0.888094 1.460779 1.082637 0.878491
/muse/elements/theta_absolute 1.041847 0.992945 0.805387 1.213045
/muse/eeg 812.620300 822.490173 820.845215 794.525513
/muse/eeg 814.265259 847.164856 820.845215 791.235535
/muse/eeg 829.070068 768.205811 835.650024 802.750427
/muse/eeg 842.229919 786.300598 842.229919 819.200195
/muse/eeg 852.099792 824.135132 824.135132 824.135132
/muse/eeg 827.425110 779.720703 802.750427 817.555237
/muse/eeg 832.360046 796.170471 827.425110 810.975281
/muse/eeg 837.294983 781.365662 834.005005 822.490173
/muse/eeg 835.650024 847.164856 837.294983 817.555237
/muse/eeg 870.194580 810.975281 857.034729 842.229919
/muse/drlref 1629032.250000 1641935.500000
/muse/acc 394.531860 867.188843 296.875458
/muse/acc 394.531860 867.188843 296.875458
/muse/acc 390.625610 867.188843 296.875458
/muse/eeg 852.099792 810.975281 830.715088 834.005005
/muse/eeg/quantization 1 1 1 1
/muse/eeg 840.584961 776.430725 815.910278 827.425110
/muse/eeg 838.940002 779.720703 825.780151 835.650024
/muse/eeg 852.099792 815.910278 797.815491 840.584961
/muse/eeg 871.839600 792.880554 815.910278 860.324707
/muse/eeg 894.869324 817.555237 840.584961 873.484558
/muse/eeg 880.064453 792.880554 848.809875 860.324707
/muse/eeg 820.845215 802.750427 817.555237 806.040344
/muse/eeg 834.005005 822.490173 804.395386 812.620300
/muse/eeg 837.294983 763.270874 817.555237 819.200195
/muse/eeg 860.324707 761.625916 819.200195 840.584961
/muse/eeg 901.449219 842.229919 838.940002 875.129517
/muse/elements/alpha_relative 0.294822 0.051337 0.113951 0.201890
/muse/elements/beta_relative 0.245608 0.279619 0.313248 0.177588
/muse/elements/delta_relative 0.218419 0.231486 0.225152 0.228334
/muse/elements/gamma_relative 0.099452 0.338582 0.229428 0.124090
/muse/elements/theta_relative 0.141699 0.098976 0.118221 0.268097
/muse/elements/horseshoe 1.000000 1.000000 1.000000 1.000000
/muse/elements/is_good 1 1 1 1
/muse/elements/blink [0]
/muse/elements/jaw_clench [0]
/muse/elements/touching_forehead [1]
/muse/elements/experimental/concentration [0.8895664215087891]
/muse/elements/experimental/mellow [0.1938544064760208]
/muse/elements/low_freqs_absolute 1.446924 1.456095 1.236068 1.480611
/muse/elements/alpha_absolute 1.360041 0.647405 0.757018 1.089867
/muse/elements/beta_absolute 1.280722 1.383539 1.196191 1.034166
/muse/elements/delta_absolute 1.229770 1.301498 1.052777 1.143323
/muse/elements/gamma_absolute 0.888094 1.466637 1.060948 0.878491
/muse/elements/theta_absolute 1.041847 0.932504 0.772997 1.213045
/muse/eeg 906.384155 802.750427 848.809875 884.999451
/muse/eeg 853.744812 768.205811 820.845215 834.005005
/muse/eeg 850.454834 768.205811 809.330322 829.070068
/muse/eeg 843.874939 792.880554 827.425110 834.005005
/muse/acc 390.625610 871.095093 292.969208
/muse/eeg 837.294983 814.265259 809.330322 814.265259
/muse/acc 382.813110 871.095093 292.969208
/muse/acc 375.000580 871.095093 289.062958
/muse/drlref 1629032.250000 1641935.500000
/muse/acc 363.281830 867.188843 289.062958
/muse/eeg 865.259644 819.200195 834.005005 852.099792
/muse/eeg/quantization 1 1 1 1
/muse/eeg 876.774536 817.555237 838.940002 870.194580
/muse/eeg 861.969727 773.140747 835.650024 861.969727
/muse/eeg 837.294983 764.915833 814.265259 827.425110
/muse/eeg 847.164856 789.590576 832.360046 840.584961
/muse/eeg 842.229919 810.975281 822.490173 830.715088
/muse/eeg 838.940002 768.205811 804.395386 824.135132
/muse/eeg 848.809875 855.389771 830.715088 840.584961
/muse/eeg 863.614685 858.679749 829.070068 853.744812
/muse/eeg 832.360046 779.720703 820.845215 835.650024
/muse/eeg 852.099792 769.850830 814.265259 834.005005
/muse/eeg 840.584961 753.401001 807.685364 829.070068
/muse/eeg 843.874939 837.294983 845.519897 837.294983
/muse/eeg 855.389771 861.969727 845.519897 850.454834
/muse/eeg 857.034729 822.490173 822.490173 845.519897
/muse/eeg 845.519897 746.821106 837.294983 829.070068
/muse/acc 359.375549 863.282593 289.062958
/muse/acc 359.375549 859.376343 292.969208
/muse/acc 367.188080 863.282593 296.875458
/muse/acc 378.906830 867.188843 300.781708
/muse/eeg 838.940002 787.945557 824.135132 807.685364
/muse/elements/alpha_relative 0.290749 0.052839 0.115300 0.200704
/muse/elements/beta_relative 0.234152 0.274720 0.318837 0.156565
/muse/elements/delta_relative 0.224916 0.233343 0.231547 0.232771
/muse/elements/gamma_relative 0.089999 0.348644 0.223100 0.119449
/muse/elements/theta_relative 0.160183 0.090454 0.111216 0.290511
/muse/elements/horseshoe 1.000000 1.000000 1.000000 1.000000
/muse/elements/is_good 1 1 1 1
/muse/elements/blink [0]
/muse/elements/jaw_clench [0]
/muse/elements/touching_forehead [1]
/muse/elements/experimental/concentration [0.9043084383010864]
/muse/elements/experimental/mellow [0.21055440604686737]
/muse/elements/low_freqs_absolute 1.451979 1.434722 1.230183 1.506048
/muse/elements/alpha_absolute 1.329924 0.647405 0.757018 1.089867
/muse/elements/beta_absolute 1.235905 1.363340 1.198759 0.982008
/muse/elements/delta_absolute 1.218427 1.292445 1.059828 1.154241
/muse/elements/gamma_absolute 0.820645 1.466832 1.043689 0.864495
/muse/elements/theta_absolute 1.071024 0.880876 0.741356 1.250475
/muse/eeg/quantization 1 1 1 1
/muse/eeg 850.454834 830.715088 814.265259 817.555237
/muse/eeg 858.679749 807.685364 824.135132 829.070068
/muse/eeg 830.715088 776.430725 827.425110 809.330322
/muse/eeg 825.780151 751.756042 792.880554 806.040344
/muse/eeg 852.099792 814.265259 837.294983 825.780151
/muse/eeg 829.070068 819.200195 847.164856 801.105408
/muse/eeg 853.744812 797.815491 797.815491 815.910278
/muse/eeg 868.549622 802.750427 832.360046 842.229919
/muse/eeg 840.584961 820.845215 817.555237 827.425110
/muse/eeg 855.389771 810.975281 809.330322 824.135132
/muse/eeg 860.324707 789.590576 819.200195 837.294983
/muse/eeg 848.809875 768.205811 824.135132 830.715088
/muse/eeg 850.454834 794.525513 807.685364 820.845215
/muse/eeg 850.454834 842.229919 807.685364 825.780151
/muse/eeg 847.164856 825.780151 822.490173 830.715088
/muse/drlref 1629032.250000 1645161.250000
/muse/acc 394.531860 867.188843 308.594238
/muse/acc 398.438110 871.095093 312.500488
/muse/acc 398.438110 875.001343 312.500488
/muse/eeg 809.330322 806.040344 829.070068 794.525513
/muse/eeg/quantization 1 1 1 1
/muse/eeg 855.389771 783.010620 835.650024 840.584961
/muse/eeg 852.099792 824.135132 829.070068 837.294983
/muse/eeg 853.744812 809.330322 817.555237 832.360046
/muse/eeg 865.259644 832.360046 812.620300 842.229919
/muse/eeg 822.490173 797.815491 819.200195 796.170471
/muse/eeg 807.685364 812.620300 825.780151 789.590576
/muse/elements/alpha_relative 0.267175 0.054901 0.116273 0.197542
/muse/elements/beta_relative 0.217691 0.269535 0.323845 0.135913
/muse/elements/delta_relative 0.241807 0.232093 0.234839 0.233347
/muse/elements/gamma_relative 0.085028 0.358689 0.220554 0.115778
/muse/elements/theta_relative 0.188299 0.084782 0.104489 0.317420
/muse/elements/horseshoe 1.000000 1.000000 1.000000 1.000000
/muse/elements/is_good 1 1 1 1
/muse/elements/blink [1]
/muse/elements/jaw_clench [0]
/muse/elements/touching_forehead [1]
/muse/elements/experimental/concentration [0.918144941329956]
/muse/elements/experimental/mellow [0.22725440561771393]
/muse/elements/low_freqs_absolute 1.469997 1.408713 1.222158 1.535177
/muse/elements/alpha_absolute 1.263219 0.647405 0.757018 1.089867
/muse/elements/beta_absolute 1.174263 1.338441 1.201875 0.927471
/muse/elements/delta_absolute 1.219891 1.273487 1.062309 1.162212
/muse/elements/gamma_absolute 0.765985 1.462544 1.035054 0.857835
/muse/elements/theta_absolute 1.111270 0.836128 0.710608 1.295843
/muse/eeg 838.940002 889.934387 843.874939 812.620300
/muse/eeg 825.780151 817.555237 810.975281 806.040344
/muse/eeg 835.650024 801.105408 810.975281 815.910278
/muse/eeg 835.650024 787.945557 815.910278 810.975281
/muse/eeg 827.425110 866.904663 819.200195 806.040344
/muse/eeg 834.005005 848.809875 806.040344 809.330322
/muse/eeg 860.324707 873.484558 815.910278 840.584961
/muse/eeg 845.519897 794.525513 792.880554 820.845215
/muse/eeg 832.360046 766.560852 797.815491 809.330322
/muse/acc 398.438110 871.095093 312.500488
/muse/acc 394.531860 875.001343 312.500488
/muse/drlref 1625806.500000 1645161.250000
/muse/acc 390.625610 875.001343 312.500488
/muse/acc 378.906830 875.001343 312.500488
/muse/eeg 832.360046 838.940002 835.650024 807.685364
/muse/eeg/quantization 1 2 1 1
/muse/eeg 827.425110 792.880554 812.620300 804.395386
/muse/eeg 848.809875 809.330322 814.265259 827.425110
/muse/eeg 840.584961 799.460449 810.975281 814.265259
/muse/eeg 857.034729 825.780151 837.294983 832.360046
/muse/eeg 873.484558 858.679749 814.265259 850.454834
/muse/eeg 852.099792 815.910278 814.265259 829.070068
/muse/eeg 825.780151 786.300598 817.555237 809.330322
/muse/eeg 801.105408 789.590576 810.975281 784.655640
/muse/eeg 824.135132 815.910278 822.490173 801.105408
/muse/eeg 843.874939 838.940002 827.425110 824.135132
/muse/eeg 848.809875 852.099792 832.360046 822.490173
/muse/eeg 863.614685 815.910278 832.360046 834.005005
/muse/elements/alpha_relative 0.226860 0.057043 0.117243 0.190941
/muse/elements/beta_relative 0.200936 0.266559 0.327178 0.117521
/muse/elements/delta_relative 0.258875 0.226988 0.233143 0.231370
/muse/elements/gamma_relative 0.082612 0.368269 0.223864 0.110670
/muse/elements/theta_relative 0.230716 0.081141 0.098572 0.349499
/muse/elements/horseshoe 1.000000 1.000000 1.000000 1.000000
/muse/elements/is_good 1 1 1 1
/muse/elements/blink [0]
/muse/elements/jaw_clench [0]
/muse/elements/touching_forehead [1]
/muse/elements/experimental/concentration [0.9313392043113708]
/muse/elements/experimental/mellow [0.24336498975753784]
/muse/elements/low_freqs_absolute 1.490289 1.379934 1.208697 1.573048
/muse/elements/alpha_absolute 1.156215 0.647405 0.757018 1.089867
/muse/elements/beta_absolute 1.103515 1.316993 1.202717 0.879084
/muse/elements/delta_absolute 1.213546 1.247203 1.055555 1.173277
/muse/elements/gamma_absolute 0.717501 1.457366 1.037917 0.852998
/muse/elements/theta_absolute 1.163534 0.800443 0.681685 1.352415
/muse/eeg 860.324707 842.229919 822.490173 838.940002
/muse/eeg 852.099792 783.010620 786.300598 832.360046
/muse/eeg 840.584961 812.620300 820.845215 824.135132
/muse/acc 375.000580 871.095093 308.594238
/muse/acc 371.094330 867.188843 304.687988
/muse/acc 371.094330 867.188843 300.781708
/muse/eeg 840.584961 784.655640 842.229919 820.845215
/muse/eeg/quantization 1 1 1 1
/muse/eeg 852.099792 820.845215 835.650024 835.650024
/muse/eeg 847.164856 824.135132 822.490173 822.490173
/muse/eeg 848.809875 820.845215 819.200195 827.425110
/muse/eeg 860.324707 835.650024 837.294983 838.940002
/muse/eeg 858.679749 852.099792 829.070068 835.650024
/muse/eeg 834.005005 829.070068 806.040344 810.975281
/muse/eeg 845.519897 845.519897 812.620300 824.135132
/muse/eeg 838.940002 796.170471 834.005005 822.490173
/muse/eeg 840.584961 774.785767 845.519897 822.490173
/muse/eeg 850.454834 827.425110 840.584961 832.360046
/muse/eeg 850.454834 824.135132 824.135132 830.715088
/muse/eeg 857.034729 852.099792 829.070068 834.005005
/muse/eeg 858.679749 815.910278 848.809875 847.164856
/muse/eeg 845.519897 804.395386 824.135132 830.715088
/muse/eeg 822.490173 830.715088 815.910278 796.170471
/muse/acc 363.281830 871.095093 296.875458
/muse/drlref 1625806.500000 1641935.500000
/muse/acc 367.188080 871.095093 296.875458
/muse/acc 371.094330 867.188843 304.687988
/muse/acc 371.094330 871.095093 304.687988
/muse/eeg 835.650024 815.910278 815.910278 814.265259
/muse/eeg/quantization 1 1 1 1
/muse/eeg 845.519897 827.425110 820.845215 820.845215
/muse/eeg 870.194580 794.525513 819.200195 847.164856
/muse/elements/alpha_relative 0.198095 0.058730 0.118516 0.180046
/muse/elements/beta_relative 0.180655 0.265099 0.327605 0.102369
/muse/elements/delta_relative 0.261437 0.218390 0.227518 0.229108
/muse/elements/gamma_relative 0.079746 0.378704 0.232666 0.102852
/muse/elements/theta_relative 0.280067 0.079077 0.093694 0.385624
/muse/elements/horseshoe 1.000000 1.000000 1.000000 1.000000
/muse/elements/is_good 1 1 1 1
/muse/elements/blink [0]
/muse/elements/jaw_clench [0]
/muse/elements/touching_forehead [1]
/muse/elements/experimental/concentration [0.9440134167671204]
/muse/elements/experimental/mellow [0.2586897015571594]
/muse/elements/low_freqs_absolute 1.511934 1.351982 1.190034 1.623170
/muse/elements/alpha_absolute 1.075205 0.647405 0.757018 1.089867
/muse/elements/beta_absolute 1.035183 1.301950 1.198592 0.844654
/muse/elements/delta_absolute 1.195699 1.217776 1.040258 1.194524
/muse/elements/gamma_absolute 0.680041 1.456843 1.049975 0.846699
/muse/elements/theta_absolute 1.225595 0.776592 0.654953 1.420648
/muse/eeg 863.614685 815.910278 827.425110 850.454834
/muse/eeg 848.809875 807.685364 835.650024 829.070068
/muse/eeg 847.164856 838.940002 827.425110 832.360046
/muse/eeg 850.454834 814.265259 812.620300 829.070068
/muse/eeg 857.034729 832.360046 837.294983 835.650024
/muse/eeg 860.324707 840.584961 832.360046 835.650024
/muse/eeg 838.940002 786.300598 802.750427 815.910278
/muse/eeg 848.809875 822.490173 827.425110 832.360046
/muse/eeg 853.744812 804.395386 824.135132 837.294983
/muse/eeg 834.005005 812.620300 824.135132 817.555237
/muse/eeg 845.519897 806.040344 819.200195 829.070068
/muse/eeg 830.715088 819.200195 807.685364 820.845215
/muse/eeg 834.005005 764.915833 838.940002 822.490173
/muse/acc 371.094330 871.095093 304.687988
/muse/acc 375.000580 871.095093 304.687988
/muse/drlref 1629032.250000 1645161.250000
/muse/acc 378.906830 871.095093 300.781708
/muse/acc 382.813110 867.188843 300.781708
/muse/eeg 857.034729 834.005005 850.454834 827.425110
/muse/eeg/quantization 1 2 1 1
/muse/eeg 857.034729 866.904663 840.584961 835.650024
/muse/eeg 863.614685 840.584961 824.135132 842.229919
/muse/eeg 830.715088 814.265259 801.105408 810.975281
/muse/eeg 838.940002 784.655640 825.780151 825.780151
/muse/eeg 837.294983 804.395386 822.490173 819.200195
/muse/eeg 837.294983 840.584961 825.780151 817.555237
/muse/eeg 866.904663 807.685364 835.650024 847.164856
/muse/eeg 870.194580 797.815491 834.005005 858.679749
/muse/elements/alpha_relative 0.177475 0.060365 0.117858 0.164691
/muse/elements/beta_relative 0.158765 0.263736 0.324925 0.089387
/muse/elements/delta_relative 0.256003 0.207696 0.229276 0.229695
/muse/elements/gamma_relative 0.077991 0.390296 0.242710 0.093068
/muse/elements/theta_relative 0.329765 0.077906 0.085231 0.423158
/muse/elements/horseshoe 1.000000 1.000000 1.000000 1.000000
/muse/elements/is_good 1 1 1 1
/muse/elements/blink [0]
/muse/elements/jaw_clench [0]
/muse/elements/touching_forehead [1]
/muse/elements/experimental/concentration [0.9565591216087341]
/muse/elements/experimental/mellow [0.2735232412815094]
/muse/elements/low_freqs_absolute 1.544715 1.328477 1.153546 1.688012
/muse/elements/alpha_absolute 1.026126 0.653502 0.727274 1.089867
/muse/elements/beta_absolute 0.977743 1.293885 1.167698 0.824472
/muse/elements/delta_absolute 1.185235 1.190144 1.016274 1.234348
/muse/elements/gamma_absolute 0.669035 1.464109 1.041002 0.841998
/muse/elements/theta_absolute 1.295193 0.764287 0.586514 1.499699
/muse/eeg 852.099792 824.135132 829.070068 840.584961
/muse/eeg 838.940002 824.135132 829.070068 822.490173
/muse/eeg 827.425110 814.265259 832.360046 812.620300
/muse/eeg 827.425110 804.395386 819.200195 814.265259
/muse/eeg 855.389771 794.525513 822.490173 845.519897
/muse/eeg 855.389771 837.294983 814.265259 843.874939
/muse/eeg 852.099792 853.744812 819.200195 837.294983
/muse/acc 382.813110 867.188843 300.781708
/muse/acc 382.813110 871.095093 300.781708
/muse/acc 382.813110 871.095093 300.781708
/muse/eeg 868.549622 842.229919 845.519897 848.809875
/muse/eeg/quantization 1 1 1 1
/muse/eeg 845.519897 776.430725 845.519897 827.425110
/muse/eeg 819.200195 797.815491 829.070068 802.750427
/muse/eeg 822.490173 815.910278 837.294983 807.685364
/muse/eeg 815.910278 797.815491 830.715088 815.910278
/muse/eeg 840.584961 825.780151 809.330322 832.360046
/muse/eeg 853.744812 825.780151 812.620300 843.874939
/muse/eeg 857.034729 858.679749 820.845215 840.584961
/muse/eeg 845.519897 807.685364 832.360046 830.715088
/muse/eeg 840.584961 792.880554 843.874939 825.780151
/muse/eeg 843.874939 779.720703 835.650024 830.715088
/muse/eeg 827.425110 852.099792 812.620300 807.685364
/muse/eeg 847.164856 842.229919 825.780151 832.360046
/muse/eeg 835.650024 794.525513 822.490173 825.780151
/muse/eeg 837.294983 783.010620 827.425110 830.715088
/muse/elements/alpha_relative 0.177475 0.061017 0.111863 0.164691
/muse/elements/beta_relative 0.158765 0.262888 0.323382 0.089387
/muse/elements/delta_relative 0.256003 0.197146 0.232895 0.229695
/muse/elements/gamma_relative 0.077991 0.401870 0.257841 0.093068
/muse/elements/theta_relative 0.329765 0.077079 0.074019 0.423158
/muse/elements/horseshoe 1.000000 1.000000 1.000000 1.000000
/muse/elements/is_good 0 1 1 0
/muse/elements/blink [0]
/muse/elements/jaw_clench [0]
/muse/elements/touching_forehead [1]
/muse/elements/experimental/concentration [0.9691048264503479]
/muse/elements/experimental/mellow [0.288356751203537]
/muse/elements/low_freqs_absolute 1.544715 1.311273 1.116842 1.688012
/muse/elements/alpha_absolute 1.026126 0.658619 0.678513 1.089867
/muse/elements/beta_absolute 0.977743 1.292935 1.139542 0.824472
/muse/elements/delta_absolute 1.185235 1.167953 0.996985 1.234348
/muse/elements/gamma_absolute 0.669035 1.477250 1.041177 0.841998
/muse/elements/theta_absolute 1.295193 0.760102 0.499169 1.499699
/muse/eeg 840.584961 822.490173 830.715088 838.940002
/muse/acc 382.813110 871.095093 300.781708
/muse/eeg 835.650024 812.620300 829.070068 825.780151
/muse/drlref 1629032.250000 1641935.500000
/muse/acc 382.813110 871.095093 300.781708
/muse/acc 382.813110 871.095093 300.781708
/muse/acc 382.813110 871.095093 300.781708
/muse/eeg 834.005005 835.650024 830.715088 820.845215
/muse/eeg/quantization 1 2 1 1
/muse/eeg 845.519897 786.300598 832.360046 825.780151
/muse/eeg 853.744812 815.910278 825.780151 834.005005
/muse/eeg 840.584961 789.590576 817.555237 822.490173
/muse/eeg 840.584961 792.880554 832.360046 829.070068
/muse/eeg 850.454834 825.780151 843.874939 834.005005
/muse/eeg 858.679749 799.460449 820.845215 838.940002
/muse/eeg 845.519897 825.780151 820.845215 825.780151
/muse/eeg 842.229919 825.780151 829.070068 817.555237
/muse/eeg 852.099792 796.170471 801.105408 829.070068
/muse/eeg 845.519897 796.170471 824.135132 825.780151
/muse/eeg 853.744812 783.010620 830.715088 830.715088
/muse/eeg 850.454834 835.650024 847.164856 834.005005
/muse/eeg 860.324707 819.200195 837.294983 838.940002
/muse/eeg 855.389771 819.200195 819.200195 830.715088
/muse/eeg 845.519897 776.430725 809.330322 822.490173
/muse/acc 378.906830 871.095093 300.781708
/muse/acc 378.906830 871.095093 300.781708
/muse/drlref 1629032.250000 1641935.500000
/muse/acc 378.906830 867.188843 300.781708
/muse/acc 378.906830 871.095093 300.781708
/muse/eeg 837.294983 792.880554 819.200195 819.200195
/muse/eeg/quantization 1 1 1 1
/muse/eeg 847.164856 822.490173 829.070068 829.070068
/muse/eeg 834.005005 829.070068 842.229919 820.845215
/muse/eeg 843.874939 810.975281 830.715088 825.780151
/muse/elements/alpha_relative 0.177475 0.060543 0.112027 0.164691
/muse/elements/beta_relative 0.158765 0.264186 0.323754 0.089387
/muse/elements/delta_relative 0.256003 0.187830 0.234365 0.229695
/muse/elements/gamma_relative 0.077991 0.411280 0.267681 0.093068
/muse/elements/theta_relative 0.329765 0.076161 0.062173 0.423158
/muse/elements/horseshoe 1.000000 1.000000 1.000000 1.000000
/muse/elements/is_good 0 1 1 0
/muse/elements/blink [0]
/muse/elements/jaw_clench [0]
/muse/elements/touching_forehead [1]
/muse/elements/experimental/concentration [0.9816505312919617]
/muse/elements/experimental/mellow [0.30319029092788696]
/muse/elements/low_freqs_absolute 1.544715 1.298144 1.081086 1.688012
/muse/elements/alpha_absolute 1.026126 0.658619 0.658329 1.089867
/muse/elements/beta_absolute 0.977743 1.298464 1.119221 0.824472
/muse/elements/delta_absolute 1.185235 1.150320 0.978898 1.234348
/muse/elements/gamma_absolute 0.669035 1.490693 1.036624 0.841998
/muse/elements/theta_absolute 1.295193 0.758288 0.402607 1.499699
/muse/eeg 848.809875 771.495789 829.070068 830.715088
/muse/eeg 848.809875 837.294983 853.744812 835.650024
/muse/eeg 853.744812 837.294983 827.425110 838.940002
/muse/eeg 853.744812 802.750427 810.975281 837.294983
/muse/eeg 843.874939 806.040344 819.200195 832.360046
/muse/eeg 835.650024 819.200195 838.940002 827.425110
/muse/eeg 824.135132 829.070068 825.780151 817.555237
/muse/eeg 834.005005 806.040344 842.229919 820.845215
/muse/eeg 820.845215 791.235535 820.845215 809.330322
/muse/eeg 829.070068 802.750427 819.200195 814.265259
/muse/eeg 824.135132 832.360046 837.294983 810.975281
/muse/eeg 814.265259 840.584961 834.005005 804.395386
/muse/acc 378.906830 867.188843 300.781708
Unknown message         
	 Source: 'osc.udp://127.0.0.1:55693/'         
	 Address: '/muse/config'         
	 Types: 's '         
	 Payload: '['{"mac_addr":"000666A069D0","serial_number":"1160-UJMN-69D0","preset":"14","filters_enabled":true,"notch_frequency_hz":60,"battery_data_enabled":true,"compression_enabled":true,"eeg_sample_frequency_hz":3520,"eeg_output_frequency_hz":220,"eeg_channel_count":4,"eeg_samples_bitwidth":10,"eeg_channel_layout":"TP9 FP1 FP2 TP10 ","eeg_downsample":16,"afe_gain":1961,"battery_percent_remaining":36,"battery_millivolts":3724,"eeg_units":"EEG_MICROVOLTS","acc_units":"ACC_GFORCE","eeg_conversion_factor":1.644980342484907,"drlref_conversion_factor":3225.806451612903,"acc_conversion_factor":3.906256109482,"acc_sample_frequency_hz":50,"drlref_sample_frequency_hz":10,"acc_data_enabled":true,"drlref_data_enabled":true,"error_data_enabled":true}\n']'
Unknown message         
	 Source: 'osc.udp://127.0.0.1:55693/'         
	 Address: '/muse/version'         
	 Types: 's '         
	 Payload: '['{"hardware_version":"16.0.0","firmware_headset_version":"7.2.7","firmware_bootloader_version":"7.2.7","firmware_type":"Research","build_number":41,"protocol_version":2}\n']'
/muse/acc 378.906830 867.188843 300.781708
/muse/acc 378.906830 867.188843 300.781708
/muse/eeg 820.845215 804.395386 827.425110 807.685364
/muse/eeg/quantization 1 1 1 1
/muse/eeg 807.685364 783.010620 820.845215 789.590576
/muse/eeg 791.235535 829.070068 830.715088 779.720703
/muse/eeg 784.655640 829.070068 830.715088 776.430725
/muse/eeg 761.625916 812.620300 829.070068 753.401001
/muse/eeg 733.661255 809.330322 838.940002 722.146362
/muse/eeg 725.436340 824.135132 837.294983 713.921448
/muse/eeg 697.471680 832.360046 830.715088 681.021851
/muse/eeg 662.927063 774.785767 825.780151 657.992126
/muse/eeg 659.637146 804.395386 829.070068 653.057190
/muse/elements/alpha_relative 0.177475 0.060138 0.112507 0.164691
/muse/elements/beta_relative 0.158765 0.267940 0.332182 0.089387
/muse/elements/delta_relative 0.256003 0.179812 0.230918 0.229695
/muse/elements/gamma_relative 0.077991 0.417311 0.273104 0.093068
/muse/elements/theta_relative 0.329765 0.074798 0.051289 0.423158
/muse/elements/horseshoe 1.000000 1.000000 1.000000 1.000000
/muse/elements/is_good 0 1 1 0
/muse/elements/blink [0]
/muse/elements/jaw_clench [0]
/muse/elements/touching_forehead [1]
/muse/elements/experimental/concentration [0.9941962957382202]
/muse/elements/experimental/mellow [0.31802383065223694]
/muse/elements/low_freqs_absolute 1.544715 1.285343 1.037376 1.688012
/muse/elements/alpha_absolute 1.026126 0.658619 0.637987 1.089867
/muse/elements/beta_absolute 0.977743 1.307504 1.108184 0.824472
/muse/elements/delta_absolute 1.185235 1.134285 0.950266 1.234348
/muse/elements/gamma_absolute 0.669035 1.499926 1.023136 0.841998
/muse/elements/theta_absolute 1.295193 0.753359 0.296833 1.499699
/muse/eeg 669.507019 781.365662 829.070068 656.347168
/muse/eeg 654.702148 837.294983 838.940002 643.187317
/muse/eeg 639.897339 804.395386 830.715088 623.447571
/muse/eeg 638.252380 809.330322 827.425110 636.607422
/muse/eeg 653.057190 778.075684 822.490173 661.282104
/muse/eeg 630.027466 796.170471 787.945557 636.607422
/muse/acc 378.906830 871.095093 300.781708
/muse/drlref 1629032.250000 1645161.250000
/muse/acc 378.906830 867.188843 304.687988
/muse/acc 382.813110 867.188843 304.687988
/muse/acc 382.813110 871.095093 304.687988
/muse/eeg 644.832275 835.650024 829.070068 648.122253
/muse/eeg/quantization 1 2 1 1
/muse/eeg 674.441956 815.910278 847.164856 679.376892
/muse/eeg 679.376892 815.910278 834.005005 689.246765
/muse/eeg 677.731873 773.140747 838.940002 689.246765
/muse/eeg 671.151978 806.040344 824.135132 676.086914
/muse/eeg 685.956787 819.200195 835.650024 685.956787
/muse/eeg 715.566467 845.519897 838.940002 707.341553
/muse/eeg 735.306213 776.430725 832.360046 732.016235
/muse/eeg 723.791321 812.620300 829.070068 713.921448
/muse/eeg 705.696594 792.880554 837.294983 702.406616
/muse/eeg 740.241150 812.620300 861.969727 740.241150
/muse/eeg 766.560852 806.040344 845.519897 764.915833
/muse/eeg 769.850830 779.720703 820.845215 764.915833
/muse/eeg 781.365662 842.229919 838.940002 771.495789
/muse/eeg 804.395386 815.910278 845.519897 797.815491
/muse/eeg 815.910278 822.490173 847.164856 812.620300
/muse/elements/alpha_relative 0.177475 0.060162 0.110679 0.164691
/muse/elements/beta_relative 0.158765 0.272826 0.347952 0.089387
/muse/elements/delta_relative 0.256003 0.172625 0.221874 0.229695
/muse/elements/gamma_relative 0.077991 0.421337 0.277789 0.093068
/muse/elements/theta_relative 0.329765 0.073050 0.041706 0.423158
/muse/elements/horseshoe 1.000000 1.000000 1.000000 1.000000
/muse/elements/is_good 0 1 1 0
